Stopping power dEdx from Ionisation for e+ Z = 0 in G4_Si, process name: eIoni
E [MeV]	dEdx [MeV/mm]
0.001	22.3238
0.00100577	22.2481
0.00101158	22.1726
0.00101742	22.0971
0.00102329	22.0218
0.0010292	21.9466
0.00103514	21.8716
0.00104112	21.7967
0.00104713	21.722
0.00105317	21.6474
0.00105925	21.5729
0.00106537	21.4986
0.00107152	21.4245
0.00107771	21.3504
0.00108393	21.2766
0.00109018	21.2028
0.00109648	21.1293
0.00110281	21.0558
0.00110917	20.9825
0.00111558	20.9094
0.00112202	20.8364
0.0011285	20.7636
0.00113501	20.6909
0.00114156	20.6184
0.00114815	20.546
0.00115478	20.4738
0.00116145	20.4017
0.00116815	20.3298
0.0011749	20.2581
0.00118168	20.1865
0.0011885	20.1151
0.00119536	20.0438
0.00120226	19.9726
0.00120921	19.9017
0.00121619	19.8309
0.00122321	19.7602
0.00123027	19.6897
0.00123737	19.6194
0.00124451	19.5493
0.0012517	19.4793
0.00125893	19.4094
0.00126619	19.3397
0.0012735	19.2702
0.00128086	19.2009
0.00128825	19.1317
0.00129569	19.0627
0.00130317	18.9938
0.00131069	18.9251
0.00131826	18.8566
0.00132587	18.7882
0.00133352	18.72
0.00134122	18.652
0.00134896	18.5842
0.00135675	18.5165
0.00136458	18.4489
0.00137246	18.3816
0.00138038	18.3144
0.00138835	18.2474
0.00139637	18.1805
0.00140443	18.1138
0.00141254	18.0473
0.00142069	17.981
0.00142889	17.9148
0.00143714	17.8488
0.00144544	17.783
0.00145378	17.7173
0.00146218	17.6518
0.00147062	17.5865
0.00147911	17.5213
0.00148765	17.4563
0.00149624	17.3915
0.00150487	17.3269
0.00151356	17.2624
0.0015223	17.1981
0.00153109	17.134
0.00153993	17.0701
0.00154882	17.0063
0.00155776	16.9427
0.00156675	16.8792
0.0015758	16.816
0.00158489	16.7529
0.00159404	16.69
0.00160325	16.6272
0.0016125	16.5647
0.00162181	16.5023
0.00163117	16.4401
0.00164059	16.378
0.00165006	16.3161
0.00165959	16.2544
0.00166917	16.1929
0.0016788	16.1316
0.0016885	16.0704
0.00169824	16.0094
0.00170805	15.9486
0.00171791	15.8879
0.00172783	15.8274
0.0017378	15.7671
0.00174783	15.707
0.00175792	15.647
0.00176807	15.5872
0.00177828	15.5276
0.00178855	15.4682
0.00179887	15.4089
0.00180926	15.3498
0.0018197	15.2909
0.00183021	15.2321
0.00184077	15.1736
0.0018514	15.1152
0.00186209	15.0569
0.00187284	14.9989
0.00188365	14.941
0.00189452	14.8833
0.00190546	14.8258
0.00191646	14.7684
0.00192752	14.7112
0.00193865	14.6542
0.00194984	14.5974
0.0019611	14.5407
0.00197242	14.4842
0.00198381	14.4279
0.00199526	14.3717
0.00200678	14.3158
0.00201837	14.26
0.00203002	14.2043
0.00204174	14.1489
0.00205353	14.0936
0.00206538	14.0385
0.0020773	13.9835
0.0020893	13.9287
0.00210136	13.8741
0.00211349	13.8197
0.00212569	13.7654
0.00213796	13.7113
0.0021503	13.6574
0.00216272	13.6037
0.0021752	13.5501
0.00218776	13.4967
0.00220039	13.4434
0.00221309	13.3904
0.00222587	13.3375
0.00223872	13.2847
0.00225165	13.2322
0.00226464	13.1798
0.00227772	13.1275
0.00229087	13.0755
0.00230409	13.0236
0.00231739	12.9719
0.00233077	12.9203
0.00234423	12.8689
0.00235776	12.8177
0.00237137	12.7667
0.00238506	12.7158
0.00239883	12.6651
0.00241268	12.6145
0.00242661	12.5641
0.00244062	12.5139
0.00245471	12.4639
0.00246888	12.414
0.00248313	12.3643
0.00249747	12.3147
0.00251189	12.2653
0.00252639	12.2161
0.00254097	12.167
0.00255564	12.1181
0.0025704	12.0694
0.00258523	12.0208
0.00260016	11.9724
0.00261517	11.9242
0.00263027	11.8761
0.00264545	11.8282
0.00266073	11.7804
0.00267609	11.7328
0.00269153	11.6854
0.00270707	11.6381
0.0027227	11.591
0.00273842	11.544
0.00275423	11.4972
0.00277013	11.4506
0.00278612	11.4041
0.00280221	11.3578
0.00281838	11.3117
0.00283465	11.2657
0.00285102	11.2198
0.00286748	11.1742
0.00288403	11.1286
0.00290068	11.0833
0.00291743	11.0381
0.00293427	10.993
0.00295121	10.9481
0.00296825	10.9034
0.00298538	10.8588
0.00300262	10.8144
0.00301995	10.7701
0.00303739	10.726
0.00305492	10.6821
0.00307256	10.6383
0.0030903	10.5946
0.00310814	10.5511
0.00312608	10.5078
0.00314413	10.4646
0.00316228	10.4216
0.00318053	10.3787
0.0031989	10.336
0.00321736	10.2934
0.00323594	10.251
0.00325462	10.2087
0.00327341	10.1666
0.0032923	10.1246
0.00331131	10.0828
0.00333043	10.0411
0.00334965	9.99962
0.00336899	9.95825
0.00338844	9.91702
0.003408	9.87595
0.00342768	9.83503
0.00344747	9.79425
0.00346737	9.75362
0.00348739	9.71314
0.00350752	9.6728
0.00352777	9.63262
0.00354813	9.59257
0.00356862	9.55268
0.00358922	9.51293
0.00360994	9.47332
0.00363078	9.43386
0.00365174	9.39454
0.00367282	9.35537
0.00369403	9.31634
0.00371535	9.27746
0.0037368	9.23872
0.00375837	9.20012
0.00378007	9.16166
0.00380189	9.12335
0.00382384	9.08517
0.00384592	9.04714
0.00386812	9.00925
0.00389045	8.9715
0.00391291	8.93389
0.0039355	8.89642
0.00395822	8.85909
0.00398107	8.8219
0.00400405	8.78484
0.00402717	8.74793
0.00405042	8.71115
0.0040738	8.67451
0.00409732	8.63801
0.00412098	8.60165
0.00414477	8.56542
0.00416869	8.52933
0.00419276	8.49337
0.00421697	8.45755
0.00424131	8.42186
0.0042658	8.38631
0.00429042	8.3509
0.00431519	8.31561
0.0043401	8.28047
0.00436516	8.24545
0.00439036	8.21057
0.0044157	8.17582
0.0044412	8.1412
0.00446684	8.10671
0.00449262	8.07236
0.00451856	8.03814
0.00454465	8.00404
0.00457088	7.97008
0.00459727	7.93625
0.00462381	7.90254
0.0046505	7.86897
0.00467735	7.83553
0.00470435	7.80221
0.00473151	7.76902
0.00475883	7.73596
0.0047863	7.70303
0.00481393	7.67022
0.00484172	7.63754
0.00486968	7.60499
0.00489779	7.57256
0.00492606	7.54026
0.0049545	7.50809
0.0049831	7.47603
0.00501187	7.44411
0.00504081	7.4123
0.00506991	7.38063
0.00509918	7.34907
0.00512861	7.31764
0.00515822	7.28633
0.005188	7.25514
0.00521795	7.22407
0.00524807	7.19313
0.00527837	7.1623
0.00530884	7.1316
0.00533949	7.10102
0.00537032	7.07056
0.00540132	7.04022
0.0054325	7.00999
0.00546387	6.97989
0.00549541	6.9499
0.00552713	6.92004
0.00555904	6.89029
0.00559114	6.86065
0.00562341	6.83114
0.00565588	6.80174
0.00568853	6.77246
0.00572137	6.74329
0.0057544	6.71424
0.00578762	6.68531
0.00582103	6.65649
0.00585464	6.62779
0.00588844	6.5992
0.00592243	6.57072
0.00595662	6.54236
0.00599101	6.51411
0.0060256	6.48597
0.00606038	6.45794
0.00609537	6.43003
0.00613056	6.40223
0.00616595	6.37454
0.00620155	6.34696
0.00623735	6.31949
0.00627336	6.29214
0.00630957	6.26489
0.006346	6.23775
0.00638263	6.21072
0.00641948	6.1838
0.00645654	6.15699
0.00649382	6.13029
0.00653131	6.10369
0.00656901	6.0772
0.00660693	6.05082
0.00664508	6.02455
0.00668344	5.99838
0.00672202	5.97232
0.00676083	5.94636
0.00679986	5.92051
0.00683912	5.89477
0.0068786	5.86913
0.00691831	5.84359
0.00695825	5.81816
0.00699842	5.79283
0.00703882	5.7676
0.00707946	5.74248
0.00712033	5.71746
0.00716143	5.69254
0.00720278	5.66773
0.00724436	5.64301
0.00728618	5.6184
0.00732825	5.59389
0.00737055	5.56948
0.0074131	5.54516
0.0074559	5.52095
0.00749894	5.49684
0.00754223	5.47283
0.00758578	5.44891
0.00762957	5.4251
0.00767361	5.40138
0.00771792	5.37776
0.00776247	5.35424
0.00780728	5.33081
0.00785236	5.30749
0.00789769	5.28425
0.00794328	5.26112
0.00798914	5.23808
0.00803526	5.21513
0.00808165	5.19228
0.00812831	5.16953
0.00817523	5.14687
0.00822243	5.12431
0.0082699	5.10183
0.00831764	5.07945
0.00836566	5.05717
0.00841395	5.03498
0.00846253	5.01288
0.00851138	4.99087
0.00856052	4.96895
0.00860994	4.94713
0.00865964	4.9254
0.00870964	4.90376
0.00875992	4.8822
0.00881049	4.86074
0.00886135	4.83937
0.00891251	4.81809
0.00896396	4.7969
0.00901571	4.77579
0.00906776	4.75478
0.00912011	4.73385
0.00917276	4.71302
0.00922571	4.69226
0.00927897	4.6716
0.00933254	4.65103
0.00938642	4.63054
0.00944061	4.61013
0.00949511	4.58982
0.00954993	4.56959
0.00960506	4.54944
0.00966051	4.52938
0.00971628	4.50941
0.00977237	4.48951
0.00982879	4.46971
0.00988553	4.44999
0.0099426	4.43035
0.01	4.41079
0.0100577	4.39132
0.0101158	4.37193
0.0101742	4.35262
0.0102329	4.3334
0.010292	4.31426
0.0103514	4.29519
0.0104112	4.27621
0.0104713	4.25732
0.0105317	4.2385
0.0105925	4.21976
0.0106537	4.2011
0.0107152	4.18252
0.0107771	4.16402
0.0108393	4.1456
0.0109018	4.12726
0.0109648	4.109
0.0110281	4.09082
0.0110917	4.07271
0.0111558	4.05468
0.0112202	4.03673
0.011285	4.01886
0.0113501	4.00106
0.0114156	3.98334
0.0114815	3.9657
0.0115478	3.94813
0.0116145	3.93064
0.0116815	3.91322
0.011749	3.89588
0.0118168	3.87861
0.011885	3.86142
0.0119536	3.8443
0.0120226	3.82726
0.0120921	3.81029
0.0121619	3.79339
0.0122321	3.77657
0.0123027	3.75982
0.0123737	3.74314
0.0124451	3.72654
0.012517	3.71
0.0125893	3.69354
0.0126619	3.67715
0.012735	3.66083
0.0128086	3.64458
0.0128825	3.62841
0.0129569	3.6123
0.0130317	3.59626
0.0131069	3.5803
0.0131826	3.5644
0.0132587	3.54857
0.0133352	3.53281
0.0134122	3.51712
0.0134896	3.5015
0.0135675	3.48595
0.0136458	3.47046
0.0137246	3.45505
0.0138038	3.4397
0.0138835	3.42442
0.0139637	3.4092
0.0140443	3.39405
0.0141254	3.37897
0.0142069	3.36395
0.0142889	3.349
0.0143714	3.33412
0.0144544	3.3193
0.0145378	3.30455
0.0146218	3.28986
0.0147062	3.27523
0.0147911	3.26067
0.0148765	3.24618
0.0149624	3.23175
0.0150487	3.21738
0.0151356	3.20308
0.015223	3.18883
0.0153109	3.17466
0.0153993	3.16054
0.0154882	3.14649
0.0155776	3.1325
0.0156675	3.11857
0.015758	3.1047
0.0158489	3.09089
0.0159404	3.07715
0.0160325	3.06347
0.016125	3.04984
0.0162181	3.03628
0.0163117	3.02278
0.0164059	3.00934
0.0165006	2.99595
0.0165959	2.98263
0.0166917	2.96937
0.016788	2.95616
0.016885	2.94302
0.0169824	2.92993
0.0170805	2.9169
0.0171791	2.90393
0.0172783	2.89102
0.017378	2.87816
0.0174783	2.86536
0.0175792	2.85262
0.0176807	2.83994
0.0177828	2.82731
0.0178855	2.81474
0.0179887	2.80223
0.0180926	2.78977
0.018197	2.77737
0.0183021	2.76502
0.0184077	2.75273
0.018514	2.7405
0.0186209	2.72832
0.0187284	2.71619
0.0188365	2.70412
0.0189452	2.6921
0.0190546	2.68014
0.0191646	2.66823
0.0192752	2.65637
0.0193865	2.64457
0.0194984	2.63282
0.019611	2.62113
0.0197242	2.60948
0.0198381	2.59789
0.0199526	2.58635
0.0200678	2.57487
0.0201837	2.56343
0.0203002	2.55205
0.0204174	2.54072
0.0205353	2.52944
0.0206538	2.51821
0.020773	2.50703
0.020893	2.49591
0.0210136	2.48483
0.0211349	2.4738
0.0212569	2.46283
0.0213796	2.4519
0.021503	2.44102
0.0216272	2.4302
0.021752	2.41942
0.0218776	2.40869
0.0220039	2.39801
0.0221309	2.38738
0.0222587	2.37679
0.0223872	2.36626
0.0225165	2.35577
0.0226464	2.34533
0.0227772	2.33494
0.0229087	2.3246
0.0230409	2.3143
0.0231739	2.30405
0.0233077	2.29385
0.0234423	2.28369
0.0235776	2.27358
0.0237137	2.26351
0.0238506	2.2535
0.0239883	2.24353
0.0241268	2.2336
0.0242661	2.22372
0.0244062	2.21388
0.0245471	2.20409
0.0246888	2.19435
0.0248313	2.18465
0.0249747	2.17499
0.0251189	2.16538
0.0252639	2.15581
0.0254097	2.14629
0.0255564	2.13681
0.025704	2.12738
0.0258523	2.11798
0.0260016	2.10863
0.0261517	2.09933
0.0263027	2.09007
0.0264545	2.08085
0.0266073	2.07167
0.0267609	2.06253
0.0269153	2.05344
0.0270707	2.04439
0.027227	2.03538
0.0273842	2.02641
0.0275423	2.01749
0.0277013	2.0086
0.0278612	1.99976
0.0280221	1.99096
0.0281838	1.98219
0.0283465	1.97347
0.0285102	1.96479
0.0286748	1.95615
0.0288403	1.94755
0.0290068	1.93899
0.0291743	1.93047
0.0293427	1.92199
0.0295121	1.91355
0.0296825	1.90515
0.0298538	1.89679
0.0300262	1.88846
0.0301995	1.88018
0.0303739	1.87193
0.0305492	1.86372
0.0307256	1.85555
0.030903	1.84742
0.0310814	1.83933
0.0312608	1.83127
0.0314413	1.82326
0.0316228	1.81528
0.0318053	1.80733
0.031989	1.79943
0.0321736	1.79156
0.0323594	1.78373
0.0325462	1.77593
0.0327341	1.76817
0.032923	1.76045
0.0331131	1.75276
0.0333043	1.74511
0.0334965	1.7375
0.0336899	1.72992
0.0338844	1.72238
0.03408	1.71487
0.0342768	1.7074
0.0344747	1.69996
0.0346737	1.69256
0.0348739	1.68519
0.0350752	1.67786
0.0352777	1.67056
0.0354813	1.6633
0.0356862	1.65607
0.0358922	1.64888
0.0360994	1.64172
0.0363078	1.63459
0.0365174	1.6275
0.0367282	1.62044
0.0369403	1.61341
0.0371535	1.60642
0.037368	1.59946
0.0375837	1.59253
0.0378007	1.58564
0.0380189	1.57878
0.0382384	1.57195
0.0384592	1.56515
0.0386812	1.55839
0.0389045	1.55166
0.0391291	1.54496
0.039355	1.53829
0.0395822	1.53165
0.0398107	1.52505
0.0400405	1.51848
0.0402717	1.51193
0.0405042	1.50542
0.040738	1.49894
0.0409732	1.49249
0.0412098	1.48608
0.0414477	1.47969
0.0416869	1.47333
0.0419276	1.46701
0.0421697	1.46071
0.0424131	1.45444
0.042658	1.44821
0.0429042	1.442
0.0431519	1.43583
0.043401	1.42968
0.0436516	1.42356
0.0439036	1.41747
0.044157	1.41141
0.044412	1.40538
0.0446684	1.39938
0.0449262	1.39341
0.0451856	1.38747
0.0454465	1.38155
0.0457088	1.37567
0.0459727	1.36981
0.0462381	1.36398
0.046505	1.35818
0.0467735	1.3524
0.0470435	1.34666
0.0473151	1.34094
0.0475883	1.33525
0.047863	1.32959
0.0481393	1.32395
0.0484172	1.31834
0.0486968	1.31276
0.0489779	1.30721
0.0492606	1.30168
0.049545	1.29618
0.049831	1.2907
0.0501187	1.28526
0.0504081	1.27984
0.0506991	1.27444
0.0509918	1.26907
0.0512861	1.26373
0.0515822	1.25841
0.05188	1.25312
0.0521795	1.24786
0.0524807	1.24262
0.0527837	1.23741
0.0530884	1.23222
0.0533949	1.22705
0.0537032	1.22192
0.0540132	1.2168
0.054325	1.21172
0.0546387	1.20665
0.0549541	1.20161
0.0552713	1.1966
0.0555904	1.19161
0.0559114	1.18665
0.0562341	1.18171
0.0565588	1.17679
0.0568853	1.1719
0.0572137	1.16703
0.057544	1.16218
0.0578762	1.15736
0.0582103	1.15257
0.0585464	1.14779
0.0588844	1.14304
0.0592243	1.13832
0.0595662	1.13361
0.0599101	1.12893
0.060256	1.12428
0.0606038	1.11964
0.0609537	1.11503
0.0613056	1.11044
0.0616595	1.10588
0.0620155	1.10133
0.0623735	1.09681
0.0627336	1.09231
0.0630957	1.08784
0.06346	1.08338
0.0638263	1.07895
0.0641948	1.07454
0.0645654	1.07015
0.0649382	1.06579
0.0653131	1.06144
0.0656901	1.05712
0.0660693	1.05281
0.0664508	1.04853
0.0668344	1.04428
0.0672202	1.04004
0.0676083	1.03582
0.0679986	1.03162
0.0683912	1.02745
0.068786	1.02329
0.0691831	1.01916
0.0695825	1.01505
0.0699842	1.01096
0.0703882	1.00688
0.0707946	1.00283
0.0712033	0.998801
0.0716143	0.99479
0.0720278	0.990798
0.0724436	0.986827
0.0728618	0.982876
0.0732825	0.978945
0.0737055	0.975033
0.074131	0.971141
0.074559	0.967269
0.0749894	0.963416
0.0754223	0.959582
0.0758578	0.955768
0.0762957	0.951973
0.0767361	0.948197
0.0771792	0.94444
0.0776247	0.940702
0.0780728	0.936983
0.0785236	0.933283
0.0789769	0.929601
0.0794328	0.925938
0.0798914	0.922294
0.0803526	0.918668
0.0808165	0.91506
0.0812831	0.911471
0.0817523	0.9079
0.0822243	0.904347
0.082699	0.900812
0.0831764	0.897295
0.0836566	0.893796
0.0841395	0.890314
0.0846253	0.886851
0.0851138	0.883405
0.0856052	0.879977
0.0860994	0.876566
0.0865964	0.873172
0.0870964	0.869796
0.0875992	0.866437
0.0881049	0.863096
0.0886135	0.859771
0.0891251	0.856464
0.0896396	0.853173
0.0901571	0.8499
0.0906776	0.846643
0.0912011	0.843402
0.0917276	0.840179
0.0922571	0.836972
0.0927897	0.833782
0.0933254	0.830608
0.0938642	0.82745
0.0944061	0.824309
0.0949511	0.821183
0.0954993	0.818074
0.0960506	0.814981
0.0966051	0.811905
0.0971628	0.808843
0.0977237	0.805798
0.0982879	0.802769
0.0988553	0.799755
0.099426	0.796757
0.1	0.793775
0.100577	0.790808
0.101158	0.787856
0.101742	0.78492
0.102329	0.781999
0.10292	0.779093
0.103514	0.776203
0.104112	0.773328
0.104713	0.770467
0.105317	0.767622
0.105925	0.764791
0.106537	0.761975
0.107152	0.759174
0.107771	0.756388
0.108393	0.753616
0.109018	0.750859
0.109648	0.748117
0.110281	0.745389
0.110917	0.742675
0.111558	0.739975
0.112202	0.73729
0.11285	0.734619
0.113501	0.731962
0.114156	0.729319
0.114815	0.72669
0.115478	0.724075
0.116145	0.721474
0.116815	0.718886
0.11749	0.716313
0.118168	0.713753
0.11885	0.711206
0.119536	0.708673
0.120226	0.706154
0.120921	0.703648
0.121619	0.701155
0.122321	0.698676
0.123027	0.69621
0.123737	0.693757
0.124451	0.691318
0.12517	0.688891
0.125893	0.686478
0.126619	0.684077
0.12735	0.681689
0.128086	0.679314
0.128825	0.676952
0.129569	0.674603
0.130317	0.672266
0.131069	0.669942
0.131826	0.667631
0.132587	0.665331
0.133352	0.663045
0.134122	0.660771
0.134896	0.658509
0.135675	0.656259
0.136458	0.654022
0.137246	0.651797
0.138038	0.649583
0.138835	0.647382
0.139637	0.645193
0.140443	0.643016
0.141254	0.640851
0.142069	0.638698
0.142889	0.636556
0.143714	0.634426
0.144544	0.632308
0.145378	0.630202
0.146218	0.628107
0.147062	0.626023
0.147911	0.623952
0.148765	0.621891
0.149624	0.619842
0.150487	0.617804
0.151356	0.615778
0.15223	0.613762
0.153109	0.611758
0.153993	0.609765
0.154882	0.607783
0.155776	0.605812
0.156675	0.603853
0.15758	0.601904
0.158489	0.599965
0.159404	0.598038
0.160325	0.596122
0.16125	0.594216
0.162181	0.592321
0.163117	0.590436
0.164059	0.588563
0.165006	0.586699
0.165959	0.584846
0.166917	0.583004
0.16788	0.581172
0.16885	0.57935
0.169824	0.577539
0.170805	0.575738
0.171791	0.573947
0.172783	0.572166
0.17378	0.570396
0.174783	0.568635
0.175792	0.566885
0.176807	0.565145
0.177828	0.563414
0.178855	0.561693
0.179887	0.559983
0.180926	0.558282
0.18197	0.556591
0.183021	0.554909
0.184077	0.553237
0.18514	0.551575
0.186209	0.549923
0.187284	0.54828
0.188365	0.546646
0.189452	0.545022
0.190546	0.543408
0.191646	0.541802
0.192752	0.540207
0.193865	0.53862
0.194984	0.537043
0.19611	0.535475
0.197242	0.533916
0.198381	0.532366
0.199526	0.530825
0.200678	0.529294
0.201837	0.527771
0.203002	0.526257
0.204174	0.524752
0.205353	0.523257
0.206538	0.52177
0.20773	0.520291
0.20893	0.518822
0.210136	0.517361
0.211349	0.515909
0.212569	0.514466
0.213796	0.513031
0.21503	0.511605
0.216272	0.510187
0.21752	0.508778
0.218776	0.507378
0.220039	0.505985
0.221309	0.504602
0.222587	0.503226
0.223872	0.501859
0.225165	0.5005
0.226464	0.499149
0.227772	0.497807
0.229087	0.496473
0.230409	0.495146
0.231739	0.493828
0.233077	0.492518
0.234423	0.491216
0.235776	0.489922
0.237137	0.488636
0.238506	0.487358
0.239883	0.486088
0.241268	0.484825
0.242661	0.48357
0.244062	0.482323
0.245471	0.481084
0.246888	0.479853
0.248313	0.478629
0.249747	0.477413
0.251189	0.476204
0.252639	0.475003
0.254097	0.47381
0.255564	0.472624
0.25704	0.471445
0.258523	0.470274
0.260016	0.46911
0.261517	0.467954
0.263027	0.466805
0.264545	0.465663
0.266073	0.464529
0.267609	0.463402
0.269153	0.462282
0.270707	0.461169
0.27227	0.460063
0.273842	0.458964
0.275423	0.457873
0.277013	0.456788
0.278612	0.45571
0.280221	0.45464
0.281838	0.453576
0.283465	0.452519
0.285102	0.45147
0.286748	0.450427
0.288403	0.44939
0.290068	0.448361
0.291743	0.447338
0.293427	0.446322
0.295121	0.445313
0.296825	0.44431
0.298538	0.443315
0.300262	0.442325
0.301995	0.441342
0.303739	0.440366
0.305492	0.439396
0.307256	0.438433
0.30903	0.437476
0.310814	0.436526
0.312608	0.435582
0.314413	0.434644
0.316228	0.433713
0.318053	0.432788
0.31989	0.431869
0.321736	0.430957
0.323594	0.430051
0.325462	0.429151
0.327341	0.428257
0.32923	0.427369
0.331131	0.426487
0.333043	0.425612
0.334965	0.424742
0.336899	0.423879
0.338844	0.423021
0.3408	0.42217
0.342768	0.421324
0.344747	0.420484
0.346737	0.419651
0.348739	0.418823
0.350752	0.418001
0.352777	0.417184
0.354813	0.416374
0.356862	0.415569
0.358922	0.41477
0.360994	0.413976
0.363078	0.413189
0.365174	0.412407
0.367282	0.41163
0.369403	0.410859
0.371535	0.410094
0.37368	0.409334
0.375837	0.40858
0.378007	0.407831
0.380189	0.407088
0.382384	0.40635
0.384592	0.405618
0.386812	0.404891
0.389045	0.404169
0.391291	0.403453
0.39355	0.402742
0.395822	0.402036
0.398107	0.401335
0.400405	0.40064
0.402717	0.39995
0.405042	0.399265
0.40738	0.398586
0.409732	0.397911
0.412098	0.397241
0.414477	0.396577
0.416869	0.395918
0.419276	0.395263
0.421697	0.394614
0.424131	0.39397
0.42658	0.39333
0.429042	0.392696
0.431519	0.392067
0.43401	0.391442
0.436516	0.390822
0.439036	0.390207
0.44157	0.389597
0.44412	0.388992
0.446684	0.388392
0.449262	0.387806
0.451856	0.387235
0.454465	0.386668
0.457088	0.386106
0.459727	0.385548
0.462381	0.384995
0.46505	0.384446
0.467735	0.383902
0.470435	0.383362
0.473151	0.382827
0.475883	0.382296
0.47863	0.38177
0.481393	0.381248
0.484172	0.38073
0.486968	0.380217
0.489779	0.379708
0.492606	0.379203
0.49545	0.378703
0.49831	0.378207
0.501187	0.377715
0.504081	0.377227
0.506991	0.376744
0.509918	0.376264
0.512861	0.375789
0.515822	0.375318
0.5188	0.374851
0.521795	0.374389
0.524807	0.37393
0.527837	0.373476
0.530884	0.373025
0.533949	0.372579
0.537032	0.372136
0.540132	0.371698
0.54325	0.371263
0.546387	0.370833
0.549541	0.370406
0.552713	0.369984
0.555904	0.369565
0.559114	0.36915
0.562341	0.368739
0.565588	0.368332
0.568853	0.367929
0.572137	0.367529
0.57544	0.367134
0.578762	0.366742
0.582103	0.366354
0.585464	0.365969
0.588844	0.365589
0.592243	0.365212
0.595662	0.364839
0.599101	0.364469
0.60256	0.364103
0.606038	0.363741
0.609537	0.363382
0.613056	0.363027
0.616595	0.362676
0.620155	0.362328
0.623735	0.361983
0.627336	0.361642
0.630957	0.361305
0.6346	0.360971
0.638263	0.360641
0.641948	0.360314
0.645654	0.359991
0.649382	0.359671
0.653131	0.359354
0.656901	0.359041
0.660693	0.358731
0.664508	0.358425
0.668344	0.358121
0.672202	0.357822
0.676083	0.357525
0.679986	0.357232
0.683912	0.356942
0.68786	0.356655
0.691831	0.356372
0.695825	0.356092
0.699842	0.355815
0.703882	0.355541
0.707946	0.355271
0.712033	0.355003
0.716143	0.354739
0.720278	0.354478
0.724436	0.35422
0.728618	0.353965
0.732825	0.353713
0.737055	0.353464
0.74131	0.353218
0.74559	0.352976
0.749894	0.352736
0.754223	0.352499
0.758578	0.352266
0.762957	0.352035
0.767361	0.351807
0.771792	0.351582
0.776247	0.351361
0.780728	0.351142
0.785236	0.350926
0.789769	0.350712
0.794328	0.350502
0.798914	0.350295
0.803526	0.35009
0.808165	0.349888
0.812831	0.349689
0.817523	0.349493
0.822243	0.349299
0.82699	0.349109
0.831764	0.348921
0.836566	0.348735
0.841395	0.348553
0.846253	0.348373
0.851138	0.348196
0.856052	0.348022
0.860994	0.34785
0.865964	0.347681
0.870964	0.347514
0.875992	0.34735
0.881049	0.347189
0.886135	0.34703
0.891251	0.346874
0.896396	0.34672
0.901571	0.346569
0.906776	0.346421
0.912011	0.346275
0.917276	0.346131
0.922571	0.34599
0.927897	0.345851
0.933254	0.345715
0.938642	0.345582
0.944061	0.34545
0.949511	0.345321
0.954993	0.345195
0.960506	0.345071
0.966051	0.344949
0.971628	0.34483
0.977237	0.344713
0.982879	0.344598
0.988553	0.344486
0.99426	0.344376
1	0.344268
1.00577	0.344162
1.01158	0.344059
1.01742	0.343958
1.02329	0.34386
1.0292	0.343763
1.03514	0.343669
1.04112	0.343577
1.04713	0.343487
1.05317	0.343399
1.05925	0.343313
1.06537	0.34323
1.07152	0.343149
1.07771	0.343069
1.08393	0.342992
1.09018	0.342917
1.09648	0.342844
1.10281	0.342773
1.10917	0.342705
1.11558	0.342638
1.12202	0.342573
1.1285	0.34251
1.13501	0.34245
1.14156	0.342391
1.14815	0.342334
1.15478	0.342279
1.16145	0.342227
1.16815	0.342176
1.1749	0.342127
1.18168	0.34208
1.1885	0.342034
1.19536	0.341991
1.20226	0.34195
1.20921	0.34191
1.21619	0.341873
1.22321	0.341837
1.23027	0.341803
1.23737	0.341771
1.24451	0.34174
1.2517	0.341712
1.25893	0.341685
1.26619	0.34166
1.2735	0.341637
1.28086	0.341615
1.28825	0.341596
1.29569	0.341578
1.30317	0.341561
1.31069	0.341547
1.31826	0.341534
1.32587	0.341522
1.33352	0.341513
1.34122	0.341505
1.34896	0.341499
1.35675	0.341494
1.36458	0.341491
1.37246	0.34149
1.38038	0.34149
1.38835	0.341492
1.39637	0.341495
1.40443	0.3415
1.41254	0.341506
1.42069	0.341514
1.42889	0.341524
1.43714	0.341535
1.44544	0.341548
1.45378	0.341562
1.46218	0.341577
1.47062	0.341595
1.47911	0.341613
1.48765	0.341633
1.49624	0.341655
1.50487	0.341678
1.51356	0.341702
1.5223	0.341728
1.53109	0.341755
1.53993	0.341783
1.54882	0.341813
1.55776	0.341845
1.56675	0.341877
1.5758	0.341911
1.58489	0.341947
1.59404	0.341983
1.60325	0.342021
1.6125	0.342061
1.62181	0.342101
1.63117	0.342143
1.64059	0.342187
1.65006	0.342231
1.65959	0.342277
1.66917	0.342324
1.6788	0.342372
1.6885	0.342422
1.69824	0.342473
1.70805	0.342525
1.71791	0.342578
1.72783	0.342632
1.7378	0.342688
1.74783	0.342745
1.75792	0.342803
1.76807	0.342862
1.77828	0.342922
1.78855	0.342983
1.79887	0.343046
1.80926	0.343109
1.8197	0.343174
1.83021	0.34324
1.84077	0.343307
1.8514	0.343375
1.86209	0.343444
1.87284	0.343515
1.88365	0.343586
1.89452	0.343658
1.90546	0.343732
1.91646	0.343806
1.92752	0.343881
1.93865	0.343958
1.94984	0.344035
1.9611	0.344114
1.97242	0.344193
1.98381	0.344274
1.99526	0.344355
2.00678	0.344437
2.01837	0.344521
2.03002	0.344605
2.04174	0.34469
2.05353	0.344777
2.06538	0.344864
2.0773	0.344952
2.0893	0.345041
2.10136	0.34513
2.11349	0.345221
2.12569	0.345313
2.13796	0.345405
2.1503	0.345499
2.16272	0.345593
2.1752	0.345688
2.18776	0.345784
2.20039	0.345881
2.21309	0.345978
2.22587	0.346077
2.23872	0.346176
2.25165	0.346276
2.26464	0.346377
2.27772	0.346478
2.29087	0.346581
2.30409	0.346684
2.31739	0.346788
2.33077	0.346893
2.34423	0.346998
2.35776	0.347105
2.37137	0.347211
2.38506	0.347319
2.39883	0.347428
2.41268	0.347537
2.42661	0.347647
2.44062	0.347757
2.45471	0.347869
2.46888	0.347981
2.48313	0.348093
2.49747	0.348207
2.51189	0.348321
2.52639	0.348435
2.54097	0.348551
2.55564	0.348667
2.5704	0.348783
2.58523	0.348901
2.60016	0.349018
2.61517	0.349137
2.63027	0.349256
2.64545	0.349376
2.66073	0.349496
2.67609	0.349617
2.69153	0.349739
2.70707	0.349861
2.7227	0.349984
2.73842	0.350107
2.75423	0.350231
2.77013	0.350355
2.78612	0.35048
2.80221	0.350606
2.81838	0.350732
2.83465	0.350858
2.85102	0.350986
2.86748	0.351113
2.88403	0.351241
2.90068	0.35137
2.91743	0.351499
2.93427	0.351629
2.95121	0.351759
2.96825	0.35189
2.98538	0.352021
3.00262	0.352153
3.01995	0.352285
3.03739	0.352418
3.05492	0.352551
3.07256	0.352684
3.0903	0.352818
3.10814	0.352953
3.12608	0.353088
3.14413	0.353223
3.16228	0.353359
3.18053	0.353495
3.1989	0.353631
3.21736	0.353768
3.23594	0.353906
3.25462	0.354044
3.27341	0.354182
3.2923	0.35432
3.31131	0.354459
3.33043	0.354599
3.34965	0.354739
3.36899	0.354879
3.38844	0.355019
3.408	0.35516
3.42768	0.355301
3.44747	0.355443
3.46737	0.355585
3.48739	0.355727
3.50752	0.35587
3.52777	0.356013
3.54813	0.356156
3.56862	0.356299
3.58922	0.356443
3.60994	0.356588
3.63078	0.356732
3.65174	0.356877
3.67282	0.357022
3.69403	0.357168
3.71535	0.357313
3.7368	0.357459
3.75837	0.357606
3.78007	0.357752
3.80189	0.357899
3.82384	0.358046
3.84592	0.358194
3.86812	0.358342
3.89045	0.35849
3.91291	0.358638
3.9355	0.358786
3.95822	0.358935
3.98107	0.359084
4.00405	0.359233
4.02717	0.359383
4.05042	0.359532
4.0738	0.359682
4.09732	0.359832
4.12098	0.359983
4.14477	0.360133
4.16869	0.360284
4.19276	0.360435
4.21697	0.360586
4.24131	0.360737
4.2658	0.360889
4.29042	0.361041
4.31519	0.361193
4.3401	0.361345
4.36516	0.361497
4.39036	0.36165
4.4157	0.361803
4.4412	0.361956
4.46684	0.362109
4.49262	0.362262
4.51856	0.362415
4.54465	0.362569
4.57088	0.362722
4.59727	0.362876
4.62381	0.36303
4.6505	0.363184
4.67735	0.363339
4.70435	0.363493
4.73151	0.363648
4.75883	0.363802
4.7863	0.363957
4.81393	0.364112
4.84172	0.364267
4.86968	0.364423
4.89779	0.364578
4.92606	0.364733
4.9545	0.364889
4.9831	0.365045
5.01187	0.3652
5.04081	0.365356
5.06991	0.365512
5.09918	0.365668
5.12861	0.365825
5.15822	0.365981
5.188	0.366137
5.21795	0.366294
5.24807	0.36645
5.27837	0.366607
5.30884	0.366764
5.33949	0.36692
5.37032	0.367077
5.40132	0.367234
5.4325	0.367391
5.46387	0.367548
5.49541	0.367705
5.52713	0.367862
5.55904	0.36802
5.59114	0.368177
5.62341	0.368334
5.65588	0.368492
5.68853	0.368649
5.72137	0.368807
5.7544	0.368964
5.78762	0.369122
5.82103	0.369279
5.85464	0.369437
5.88844	0.369595
5.92243	0.369753
5.95662	0.36991
5.99101	0.370068
6.0256	0.370226
6.06038	0.370384
6.09537	0.370542
6.13056	0.3707
6.16595	0.370857
6.20155	0.371015
6.23735	0.371173
6.27336	0.371331
6.30957	0.371489
6.346	0.371647
6.38263	0.371805
6.41948	0.371963
6.45654	0.372121
6.49382	0.372279
6.53131	0.372437
6.56901	0.372595
6.60693	0.372753
6.64508	0.372911
6.68344	0.373069
6.72202	0.373227
6.76083	0.373385
6.79986	0.373543
6.83912	0.373701
6.8786	0.373858
6.91831	0.374016
6.95825	0.374174
6.99842	0.374332
7.03882	0.37449
7.07946	0.374648
7.12033	0.374805
7.16143	0.374963
7.20278	0.375121
7.24436	0.375278
7.28618	0.375436
7.32825	0.375593
7.37055	0.375751
7.4131	0.375909
7.4559	0.376066
7.49894	0.376223
7.54223	0.376381
7.58578	0.376538
7.62957	0.376695
7.67361	0.376853
7.71792	0.37701
7.76247	0.377167
7.80728	0.377324
7.85236	0.377481
7.89769	0.377638
7.94328	0.377795
7.98914	0.377952
8.03526	0.378109
8.08165	0.378265
8.12831	0.378422
8.17523	0.378579
8.22243	0.378735
8.2699	0.378892
8.31764	0.379048
8.36566	0.379204
8.41395	0.379361
8.46253	0.379517
8.51138	0.379673
8.56052	0.379829
8.60994	0.379985
8.65964	0.380141
8.70964	0.380297
8.75992	0.380453
8.81049	0.380608
8.86135	0.380764
8.91251	0.380919
8.96396	0.381075
9.01571	0.38123
9.06776	0.381386
9.12011	0.381541
9.17276	0.381696
9.22571	0.381851
9.27897	0.382006
9.33254	0.382161
9.38642	0.382316
9.44061	0.38247
9.49511	0.382625
9.54993	0.382779
9.60506	0.382934
9.66051	0.383088
9.71628	0.383242
9.77237	0.383397
9.82879	0.383551
9.88553	0.383704
9.9426	0.383858
10	0.384012
10.0577	0.384166
10.1158	0.384319
10.1742	0.384473
10.2329	0.384626
10.292	0.384779
10.3514	0.384933
10.4112	0.385086
10.4713	0.385238
10.5317	0.385391
10.5925	0.385544
10.6537	0.385697
10.7152	0.385849
10.7771	0.386002
10.8393	0.386154
10.9018	0.386306
10.9648	0.386458
11.0281	0.38661
11.0917	0.386762
11.1558	0.386914
11.2202	0.387065
11.285	0.387217
11.3501	0.387368
11.4156	0.38752
11.4815	0.387671
11.5478	0.387822
11.6145	0.387973
11.6815	0.388124
11.749	0.388275
11.8168	0.388425
11.885	0.388576
11.9536	0.388726
12.0226	0.388876
12.0921	0.389026
12.1619	0.389176
12.2321	0.389326
12.3027	0.389476
12.3737	0.389626
12.4451	0.389775
12.517	0.389925
12.5893	0.390074
12.6619	0.390223
12.735	0.390372
12.8086	0.390521
12.8825	0.39067
12.9569	0.390819
13.0317	0.390967
13.1069	0.391116
13.1826	0.391264
13.2587	0.391412
13.3352	0.39156
13.4122	0.391708
13.4896	0.391856
13.5675	0.392004
13.6458	0.392151
13.7246	0.392299
13.8038	0.392446
13.8835	0.392593
13.9637	0.39274
14.0443	0.392887
14.1254	0.393034
14.2069	0.393181
14.2889	0.393327
14.3714	0.393473
14.4544	0.39362
14.5378	0.393766
14.6218	0.393912
14.7062	0.394058
14.7911	0.394204
14.8765	0.394349
14.9624	0.394495
15.0487	0.39464
15.1356	0.394785
15.223	0.39493
15.3109	0.395075
15.3993	0.39522
15.4882	0.395365
15.5776	0.395509
15.6675	0.395654
15.758	0.395798
15.8489	0.395942
15.9404	0.396086
16.0325	0.39623
16.125	0.396374
16.2181	0.396518
16.3117	0.396661
16.4059	0.396804
16.5006	0.396948
16.5959	0.397091
16.6917	0.397234
16.788	0.397377
16.885	0.397519
16.9824	0.397662
17.0805	0.397804
17.1791	0.397946
17.2783	0.398089
17.378	0.398231
17.4783	0.398373
17.5792	0.398514
17.6807	0.398656
17.7828	0.398797
17.8855	0.398939
17.9887	0.39908
18.0926	0.399221
18.197	0.399362
18.3021	0.399503
18.4077	0.399643
18.514	0.399784
18.6209	0.399924
18.7284	0.400065
18.8365	0.400205
18.9452	0.400345
19.0546	0.400485
19.1646	0.400624
19.2752	0.400764
19.3865	0.400903
19.4984	0.401043
19.611	0.401182
19.7242	0.401321
19.8381	0.40146
19.9526	0.401599
20.0678	0.401737
20.1837	0.401876
20.3002	0.402014
20.4174	0.402152
20.5353	0.40229
20.6538	0.402428
20.773	0.402566
20.893	0.402704
21.0136	0.402841
21.1349	0.402979
21.2569	0.403116
21.3796	0.403253
21.503	0.40339
21.6272	0.403527
21.752	0.403664
21.8776	0.403801
22.0039	0.403937
22.1309	0.404073
22.2587	0.40421
22.3872	0.404346
22.5165	0.404482
22.6464	0.404617
22.7772	0.404753
22.9087	0.404889
23.0409	0.405024
23.1739	0.405159
23.3077	0.405294
23.4423	0.405429
23.5776	0.405564
23.7137	0.405699
23.8506	0.405834
23.9883	0.405968
24.1268	0.406102
24.2661	0.406237
24.4062	0.406371
24.5471	0.406505
24.6888	0.406639
24.8313	0.406772
24.9747	0.406906
25.1189	0.407039
25.2639	0.407172
25.4097	0.407306
25.5564	0.407439
25.704	0.407572
25.8523	0.407704
26.0016	0.407837
26.1517	0.407969
26.3027	0.408102
26.4545	0.408234
26.6073	0.408366
26.7609	0.408498
26.9153	0.40863
27.0707	0.408762
27.227	0.408893
27.3842	0.409025
27.5423	0.409156
27.7013	0.409287
27.8612	0.409418
28.0221	0.409549
28.1838	0.40968
28.3465	0.409811
28.5102	0.409941
28.6748	0.410072
28.8403	0.410202
29.0068	0.410332
29.1743	0.410462
29.3427	0.410592
29.5121	0.410722
29.6825	0.410852
29.8538	0.410981
30.0262	0.411111
30.1995	0.41124
30.3739	0.411369
30.5492	0.411498
30.7256	0.411627
30.903	0.411756
31.0814	0.411885
31.2608	0.412013
31.4413	0.412142
31.6228	0.41227
31.8053	0.412398
31.989	0.412526
32.1736	0.412654
32.3594	0.412782
32.5462	0.41291
32.7341	0.413037
32.923	0.413165
33.1131	0.413292
33.3043	0.413419
33.4965	0.413546
33.6899	0.413673
33.8844	0.4138
34.08	0.413927
34.2768	0.414053
34.4747	0.41418
34.6737	0.414306
34.8739	0.414433
35.0752	0.414559
35.2777	0.414685
35.4813	0.414811
35.6862	0.414936
35.8922	0.415062
36.0994	0.415187
36.3078	0.415313
36.5174	0.415438
36.7282	0.415563
36.9403	0.415688
37.1535	0.415813
37.368	0.415938
37.5837	0.416063
37.8007	0.416187
38.0189	0.416312
38.2384	0.416436
38.4592	0.41656
38.6812	0.416685
38.9045	0.416809
39.1291	0.416933
39.355	0.417056
39.5822	0.41718
39.8107	0.417304
40.0405	0.417427
40.2717	0.41755
40.5042	0.417674
40.738	0.417797
40.9732	0.41792
41.2098	0.418043
41.4477	0.418165
41.6869	0.418288
41.9276	0.418411
42.1697	0.418533
42.4131	0.418655
42.658	0.418777
42.9042	0.4189
43.1519	0.419022
43.401	0.419143
43.6516	0.419265
43.9036	0.419387
44.157	0.419509
44.412	0.41963
44.6684	0.419751
44.9262	0.419873
45.1856	0.419994
45.4465	0.420115
45.7088	0.420236
45.9727	0.420356
46.2381	0.420477
46.505	0.420598
46.7735	0.420718
47.0435	0.420839
47.3151	0.420959
47.5883	0.421079
47.863	0.421199
48.1393	0.421319
48.4172	0.421439
48.6968	0.421559
48.9779	0.421679
49.2606	0.421798
49.545	0.421918
49.831	0.422037
50.1187	0.422156
50.4081	0.422275
50.6991	0.422394
50.9918	0.422513
51.2861	0.422632
51.5822	0.422751
51.88	0.42287
52.1795	0.422988
52.4807	0.423107
52.7837	0.423225
53.0884	0.423343
53.3949	0.423461
53.7032	0.423579
54.0132	0.423697
54.325	0.423815
54.6387	0.423933
54.9541	0.424051
55.2713	0.424168
55.5904	0.424286
55.9114	0.424403
56.2341	0.42452
56.5588	0.424638
56.8853	0.424755
57.2137	0.424872
57.544	0.424989
57.8762	0.425106
58.2103	0.425222
58.5464	0.425339
58.8844	0.425455
59.2243	0.425572
59.5662	0.425688
59.9101	0.425805
60.256	0.425921
60.6038	0.426037
60.9537	0.426153
61.3056	0.426269
61.6595	0.426384
62.0155	0.4265
62.3735	0.426616
62.7336	0.426731
63.0957	0.426847
63.46	0.426962
63.8263	0.427077
64.1948	0.427193
64.5654	0.427308
64.9382	0.427423
65.3131	0.427538
65.6901	0.427653
66.0693	0.427767
66.4508	0.427882
66.8344	0.427997
67.2202	0.428111
67.6083	0.428225
67.9986	0.42834
68.3912	0.428454
68.786	0.428568
69.1831	0.428682
69.5825	0.428796
69.9842	0.42891
70.3882	0.429024
70.7946	0.429138
71.2033	0.429251
71.6143	0.429365
72.0278	0.429479
72.4436	0.429592
72.8618	0.429705
73.2825	0.429819
73.7055	0.429932
74.131	0.430045
74.559	0.430158
74.9894	0.430271
75.4223	0.430384
75.8578	0.430496
76.2957	0.430609
76.7361	0.430722
77.1792	0.430834
77.6247	0.430947
78.0728	0.431059
78.5236	0.431171
78.9769	0.431284
79.4328	0.431396
79.8914	0.431508
80.3526	0.43162
80.8165	0.431732
81.2831	0.431844
81.7523	0.431956
82.2243	0.432067
82.699	0.432179
83.1764	0.432291
83.6566	0.432402
84.1395	0.432513
84.6253	0.432625
85.1138	0.432736
85.6052	0.432847
86.0994	0.432958
86.5964	0.43307
87.0964	0.433181
87.5992	0.433291
88.1049	0.433402
88.6135	0.433513
89.1251	0.433624
89.6396	0.433735
90.1571	0.433845
90.6776	0.433956
91.2011	0.434066
91.7276	0.434176
92.2571	0.434287
92.7897	0.434397
93.3254	0.434507
93.8642	0.434617
94.4061	0.434727
94.9511	0.434837
95.4993	0.434947
96.0506	0.435057
96.6051	0.435167
97.1628	0.435277
97.7237	0.435386
98.2879	0.435496
98.8553	0.435605
99.426	0.435715
100	0.435824
100.577	0.435934
101.158	0.436043
101.742	0.436152
102.329	0.436261
102.92	0.43637
103.514	0.436479
104.112	0.436588
104.713	0.436697
105.317	0.436806
105.925	0.436915
106.537	0.437024
107.152	0.437132
107.771	0.437241
108.393	0.437349
109.018	0.437458
109.648	0.437566
110.281	0.437675
110.917	0.437783
111.558	0.437891
112.202	0.438
112.85	0.438108
113.501	0.438216
114.156	0.438324
114.815	0.438432
115.478	0.43854
116.145	0.438648
116.815	0.438756
117.49	0.438863
118.168	0.438971
118.85	0.439079
119.536	0.439186
120.226	0.439294
120.921	0.439401
121.619	0.439509
122.321	0.439616
123.027	0.439724
123.737	0.439831
124.451	0.439938
125.17	0.440045
125.893	0.440153
126.619	0.44026
127.35	0.440367
128.086	0.440474
128.825	0.440581
129.569	0.440688
130.317	0.440795
131.069	0.440901
131.826	0.441008
132.587	0.441115
133.352	0.441222
134.122	0.441328
134.896	0.441435
135.675	0.441541
136.458	0.441648
137.246	0.441754
138.038	0.441861
138.835	0.441967
139.637	0.442073
140.443	0.44218
141.254	0.442286
142.069	0.442392
142.889	0.442498
143.714	0.442604
144.544	0.44271
145.378	0.442816
146.218	0.442922
147.062	0.443028
147.911	0.443134
148.765	0.44324
149.624	0.443346
150.487	0.443451
151.356	0.443557
152.23	0.443663
153.109	0.443769
153.993	0.443874
154.882	0.44398
155.776	0.444085
156.675	0.444191
157.58	0.444296
158.489	0.444402
159.404	0.444507
160.325	0.444612
161.25	0.444718
162.181	0.444823
163.117	0.444928
164.059	0.445033
165.006	0.445138
165.959	0.445244
166.917	0.445349
167.88	0.445454
168.85	0.445559
169.824	0.445664
170.805	0.445769
171.791	0.445874
172.783	0.445978
173.78	0.446083
174.783	0.446188
175.792	0.446293
176.807	0.446398
177.828	0.446502
178.855	0.446607
179.887	0.446712
180.926	0.446816
181.97	0.446921
183.021	0.447026
184.077	0.44713
185.14	0.447235
186.209	0.447339
187.284	0.447444
188.365	0.447548
189.452	0.447652
190.546	0.447757
191.646	0.447861
192.752	0.447965
193.865	0.44807
194.984	0.448174
196.11	0.448278
197.242	0.448382
198.381	0.448487
199.526	0.448591
200.678	0.448695
201.837	0.448799
203.002	0.448903
204.174	0.449007
205.353	0.449111
206.538	0.449215
207.73	0.449319
208.93	0.449423
210.136	0.449527
211.349	0.449631
212.569	0.449735
213.796	0.449839
215.03	0.449942
216.272	0.450046
217.52	0.45015
218.776	0.450254
220.039	0.450357
221.309	0.450461
222.587	0.450565
223.872	0.450669
225.165	0.450772
226.464	0.450876
227.772	0.45098
229.087	0.451083
230.409	0.451187
231.739	0.45129
233.077	0.451394
234.423	0.451497
235.776	0.451601
237.137	0.451704
238.506	0.451808
239.883	0.451911
241.268	0.452015
242.661	0.452118
244.062	0.452222
245.471	0.452325
246.888	0.452428
248.313	0.452532
249.747	0.452635
251.189	0.452738
252.639	0.452842
254.097	0.452945
255.564	0.453048
257.04	0.453152
258.523	0.453255
260.016	0.453358
261.517	0.453461
263.027	0.453564
264.545	0.453668
266.073	0.453771
267.609	0.453874
269.153	0.453977
270.707	0.45408
272.27	0.454183
273.842	0.454287
275.423	0.45439
277.013	0.454493
278.612	0.454596
280.221	0.454699
281.838	0.454802
283.465	0.454905
285.102	0.455008
286.748	0.455111
288.403	0.455214
290.068	0.455317
291.743	0.45542
293.427	0.455523
295.121	0.455626
296.825	0.455729
298.538	0.455832
300.262	0.455935
301.995	0.456038
303.739	0.456141
305.492	0.456244
307.256	0.456347
309.03	0.45645
310.814	0.456553
312.608	0.456656
314.413	0.456759
316.228	0.456862
318.053	0.456964
319.89	0.457067
321.736	0.45717
323.594	0.457273
325.462	0.457376
327.341	0.457479
329.23	0.457582
331.131	0.457685
333.043	0.457788
334.965	0.45789
336.899	0.457993
338.844	0.458096
340.8	0.458199
342.768	0.458302
344.747	0.458405
346.737	0.458507
348.739	0.45861
350.752	0.458713
352.777	0.458816
354.813	0.458919
356.862	0.459022
358.922	0.459124
360.994	0.459227
363.078	0.45933
365.174	0.459433
367.282	0.459536
369.403	0.459638
371.535	0.459741
373.68	0.459844
375.837	0.459947
378.007	0.46005
380.189	0.460152
382.384	0.460255
384.592	0.460358
386.812	0.460461
389.045	0.460564
391.291	0.460666
393.55	0.460769
395.822	0.460872
398.107	0.460975
400.405	0.461078
402.717	0.46118
405.042	0.461283
407.38	0.461386
409.732	0.461489
412.098	0.461592
414.477	0.461694
416.869	0.461797
419.276	0.4619
421.697	0.462003
424.131	0.462106
426.58	0.462208
429.042	0.462311
431.519	0.462414
434.01	0.462517
436.516	0.46262
439.036	0.462722
441.57	0.462825
444.12	0.462928
446.684	0.463031
449.262	0.463133
451.856	0.463236
454.465	0.463339
457.088	0.463442
459.727	0.463545
462.381	0.463647
465.05	0.46375
467.735	0.463853
470.435	0.463956
473.151	0.464058
475.883	0.464161
478.63	0.464264
481.393	0.464367
484.172	0.46447
486.968	0.464572
489.779	0.464675
492.606	0.464778
495.45	0.464881
498.31	0.464983
501.187	0.465086
504.081	0.465189
506.991	0.465292
509.918	0.465394
512.861	0.465497
515.822	0.4656
518.8	0.465703
521.795	0.465806
524.807	0.465908
527.837	0.466011
530.884	0.466114
533.949	0.466217
537.032	0.466319
540.132	0.466422
543.25	0.466525
546.387	0.466628
549.541	0.46673
552.713	0.466833
555.904	0.466936
559.114	0.467039
562.341	0.467141
565.588	0.467244
568.853	0.467347
572.137	0.46745
575.44	0.467552
578.762	0.467655
582.103	0.467758
585.464	0.467861
588.844	0.467963
592.243	0.468066
595.662	0.468169
599.101	0.468272
602.56	0.468374
606.038	0.468477
609.537	0.46858
613.056	0.468683
616.595	0.468785
620.155	0.468888
623.735	0.468991
627.336	0.469094
630.957	0.469196
634.6	0.469299
638.263	0.469402
641.948	0.469505
645.654	0.469607
649.382	0.46971
653.131	0.469813
656.901	0.469916
660.693	0.470018
664.508	0.470121
668.344	0.470224
672.202	0.470327
676.083	0.470429
679.986	0.470532
683.912	0.470635
687.86	0.470738
691.831	0.47084
695.825	0.470943
699.842	0.471046
703.882	0.471149
707.946	0.471251
712.033	0.471354
716.143	0.471457
720.278	0.47156
724.436	0.471662
728.618	0.471765
732.825	0.471868
737.055	0.47197
741.31	0.472073
745.59	0.472176
749.894	0.472279
754.223	0.472381
758.578	0.472484
762.957	0.472587
767.361	0.47269
771.792	0.472792
776.247	0.472895
780.728	0.472998
785.236	0.473101
789.769	0.473203
794.328	0.473306
798.914	0.473409
803.526	0.473511
808.165	0.473614
812.831	0.473717
817.523	0.47382
822.243	0.473922
826.99	0.474025
831.764	0.474128
836.566	0.474231
841.395	0.474333
846.253	0.474436
851.138	0.474539
856.052	0.474641
860.994	0.474744
865.964	0.474847
870.964	0.47495
875.992	0.475052
881.049	0.475155
886.135	0.475258
891.251	0.47536
896.396	0.475463
901.571	0.475566
906.776	0.475669
912.011	0.475771
917.276	0.475874
922.571	0.475977
927.897	0.476079
933.254	0.476182
938.642	0.476285
944.061	0.476388
949.511	0.47649
954.993	0.476593
960.506	0.476696
966.051	0.476798
971.628	0.476901
977.237	0.477004
982.879	0.477107
988.553	0.477209
994.26	0.477312
1000	0.477415
1005.77	0.477517
1011.58	0.47762
1017.42	0.477723
1023.29	0.477826
1029.2	0.477928
1035.14	0.478031
1041.12	0.478134
1047.13	0.478236
1053.17	0.478339
1059.25	0.478442
1065.37	0.478545
1071.52	0.478647
1077.71	0.47875
1083.93	0.478853
1090.18	0.478955
1096.48	0.479058
1102.81	0.479161
1109.17	0.479264
1115.58	0.479366
1122.02	0.479469
1128.5	0.479572
1135.01	0.479674
1141.56	0.479777
1148.15	0.47988
1154.78	0.479983
1161.45	0.480085
1168.15	0.480188
1174.9	0.480291
1181.68	0.480393
1188.5	0.480496
1195.36	0.480599
1202.26	0.480701
1209.21	0.480804
1216.19	0.480907
1223.21	0.48101
1230.27	0.481112
1237.37	0.481215
1244.51	0.481318
1251.7	0.48142
1258.93	0.481523
1266.19	0.481626
1273.5	0.481728
1280.86	0.481831
1288.25	0.481934
1295.69	0.482037
1303.17	0.482139
1310.69	0.482242
1318.26	0.482345
1325.87	0.482447
1333.52	0.48255
1341.22	0.482653
1348.96	0.482755
1356.75	0.482858
1364.58	0.482961
1372.46	0.483064
1380.38	0.483166
1388.35	0.483269
1396.37	0.483372
1404.43	0.483474
1412.54	0.483577
1420.69	0.48368
1428.89	0.483782
1437.14	0.483885
1445.44	0.483988
1453.78	0.484091
1462.18	0.484193
1470.62	0.484296
1479.11	0.484399
1487.65	0.484501
1496.24	0.484604
1504.87	0.484707
1513.56	0.484809
1522.3	0.484912
1531.09	0.485015
1539.93	0.485117
1548.82	0.48522
1557.76	0.485323
1566.75	0.485426
1575.8	0.485528
1584.89	0.485631
1594.04	0.485734
1603.25	0.485836
1612.5	0.485939
1621.81	0.486042
1631.17	0.486144
1640.59	0.486247
1650.06	0.48635
1659.59	0.486452
1669.17	0.486555
1678.8	0.486658
1688.5	0.486761
1698.24	0.486863
1708.05	0.486966
1717.91	0.487069
1727.83	0.487171
1737.8	0.487274
1747.83	0.487377
1757.92	0.487479
1768.07	0.487582
1778.28	0.487685
1788.55	0.487787
1798.87	0.48789
1809.26	0.487993
1819.7	0.488095
1830.21	0.488198
1840.77	0.488301
1851.4	0.488404
1862.09	0.488506
1872.84	0.488609
1883.65	0.488712
1894.52	0.488814
1905.46	0.488917
1916.46	0.48902
1927.52	0.489122
1938.65	0.489225
1949.84	0.489328
1961.1	0.48943
1972.42	0.489533
1983.81	0.489636
1995.26	0.489738
2006.78	0.489841
2018.37	0.489944
2030.02	0.490046
2041.74	0.490149
2053.53	0.490252
2065.38	0.490355
2077.3	0.490457
2089.3	0.49056
2101.36	0.490663
2113.49	0.490765
2125.69	0.490868
2137.96	0.490971
2150.3	0.491073
2162.72	0.491176
2175.2	0.491279
2187.76	0.491381
2200.39	0.491484
2213.09	0.491587
2225.87	0.491689
2238.72	0.491792
2251.65	0.491895
2264.64	0.491997
2277.72	0.4921
2290.87	0.492203
2304.09	0.492305
2317.39	0.492408
2330.77	0.492511
2344.23	0.492613
2357.76	0.492716
2371.37	0.492819
2385.06	0.492922
2398.83	0.493024
2412.68	0.493127
2426.61	0.49323
2440.62	0.493332
2454.71	0.493435
2468.88	0.493538
2483.13	0.49364
2497.47	0.493743
2511.89	0.493846
2526.39	0.493948
2540.97	0.494051
2555.64	0.494154
2570.4	0.494256
2585.23	0.494359
2600.16	0.494462
2615.17	0.494564
2630.27	0.494667
2645.45	0.49477
2660.73	0.494872
2676.09	0.494975
2691.53	0.495078
2707.07	0.49518
2722.7	0.495283
2738.42	0.495386
2754.23	0.495488
2770.13	0.495591
2786.12	0.495694
2802.21	0.495796
2818.38	0.495899
2834.65	0.496002
2851.02	0.496105
2867.48	0.496207
2884.03	0.49631
2900.68	0.496413
2917.43	0.496515
2934.27	0.496618
2951.21	0.496721
2968.25	0.496823
2985.38	0.496926
3002.62	0.497029
3019.95	0.497131
3037.39	0.497234
3054.92	0.497337
3072.56	0.497439
3090.3	0.497542
3108.14	0.497645
3126.08	0.497747
3144.13	0.49785
3162.28	0.497953
3180.53	0.498055
3198.9	0.498158
3217.36	0.498261
3235.94	0.498363
3254.62	0.498466
3273.41	0.498569
3292.3	0.498671
3311.31	0.498774
3330.43	0.498877
3349.65	0.498979
3368.99	0.499082
3388.44	0.499185
3408	0.499287
3427.68	0.49939
3447.47	0.499493
3467.37	0.499595
3487.39	0.499698
3507.52	0.499801
3527.77	0.499903
3548.13	0.500006
3568.62	0.500109
3589.22	0.500211
3609.94	0.500314
3630.78	0.500417
3651.74	0.500519
3672.82	0.500622
3694.03	0.500725
3715.35	0.500827
3736.8	0.50093
3758.37	0.501033
3780.07	0.501135
3801.89	0.501238
3823.84	0.501341
3845.92	0.501443
3868.12	0.501546
3890.45	0.501649
3912.91	0.501751
3935.5	0.501854
3958.22	0.501957
3981.07	0.502059
4004.05	0.502162
4027.17	0.502265
4050.42	0.502367
4073.8	0.50247
4097.32	0.502573
4120.98	0.502675
4144.77	0.502778
4168.69	0.502881
4192.76	0.502983
4216.97	0.503086
4241.31	0.503189
4265.8	0.503291
4290.42	0.503394
4315.19	0.503497
4340.1	0.503599
4365.16	0.503702
4390.36	0.503805
4415.7	0.503907
4441.2	0.50401
4466.84	0.504113
4492.62	0.504215
4518.56	0.504318
4544.65	0.504421
4570.88	0.504523
4597.27	0.504626
4623.81	0.504729
4650.5	0.504831
4677.35	0.504934
4704.35	0.505037
4731.51	0.505139
4758.83	0.505242
4786.3	0.505345
4813.93	0.505447
4841.72	0.50555
4869.68	0.505653
4897.79	0.505755
4926.06	0.505858
4954.5	0.505961
4983.1	0.506063
5011.87	0.506166
5040.81	0.506269
5069.91	0.506371
5099.18	0.506474
5128.61	0.506577
5158.22	0.506679
5188	0.506782
5217.95	0.506885
5248.07	0.506987
5278.37	0.50709
5308.84	0.507193
5339.49	0.507295
5370.32	0.507398
5401.32	0.507501
5432.5	0.507603
5463.87	0.507706
5495.41	0.507809
5527.13	0.507911
5559.04	0.508014
5591.14	0.508117
5623.41	0.508219
5655.88	0.508322
5688.53	0.508425
5721.37	0.508527
5754.4	0.50863
5787.62	0.508733
5821.03	0.508835
5854.64	0.508938
5888.44	0.509041
5922.43	0.509143
5956.62	0.509246
5991.01	0.509349
6025.6	0.509451
6060.38	0.509554
6095.37	0.509657
6130.56	0.509759
6165.95	0.509862
6201.55	0.509965
6237.35	0.510067
6273.36	0.51017
6309.57	0.510273
6346	0.510375
6382.63	0.510478
6419.48	0.510581
6456.54	0.510683
6493.82	0.510786
6531.31	0.510889
6569.01	0.510991
6606.93	0.511094
6645.08	0.511197
6683.44	0.511299
6722.02	0.511402
6760.83	0.511505
6799.86	0.511607
6839.12	0.51171
6878.6	0.511813
6918.31	0.511915
6958.25	0.512018
6998.42	0.512121
7038.82	0.512223
7079.46	0.512326
7120.33	0.512429
7161.43	0.512531
7202.78	0.512634
7244.36	0.512737
7286.18	0.512839
7328.25	0.512942
7370.55	0.513045
7413.1	0.513147
7455.9	0.51325
7498.94	0.513353
7542.23	0.513455
7585.78	0.513558
7629.57	0.513661
7673.61	0.513763
7717.92	0.513866
7762.47	0.513969
7807.28	0.514071
7852.36	0.514174
7897.69	0.514277
7943.28	0.514379
7989.14	0.514482
8035.26	0.514585
8081.65	0.514687
8128.31	0.51479
8175.23	0.514893
8222.43	0.514995
8269.9	0.515098
8317.64	0.515201
8365.66	0.515303
8413.95	0.515406
8462.53	0.515508
8511.38	0.515611
8560.52	0.515714
8609.94	0.515816
8659.64	0.515919
8709.64	0.516022
8759.92	0.516124
8810.49	0.516227
8861.35	0.51633
8912.51	0.516432
8963.96	0.516535
9015.71	0.516638
9067.76	0.51674
9120.11	0.516843
9172.76	0.516946
9225.71	0.517048
9278.97	0.517151
9332.54	0.517254
9386.42	0.517356
9440.61	0.517459
9495.11	0.517562
9549.93	0.517664
9605.06	0.517767
9660.51	0.51787
9716.28	0.517972
9772.37	0.518075
9828.79	0.518178
9885.53	0.51828
9942.6	0.518383
10000	0.518486
10057.7	0.518588
10115.8	0.518691
10174.2	0.518794
10232.9	0.518896
10292	0.518999
10351.4	0.519102
10411.2	0.519204
10471.3	0.519307
10531.7	0.51941
10592.5	0.519512
10653.7	0.519615
10715.2	0.519718
10777.1	0.51982
10839.3	0.519923
10901.8	0.520026
10964.8	0.520128
11028.1	0.520231
11091.7	0.520334
11155.8	0.520436
11220.2	0.520539
11285	0.520641
11350.1	0.520744
11415.6	0.520847
11481.5	0.520949
11547.8	0.521052
11614.5	0.521155
11681.5	0.521257
11749	0.52136
11816.8	0.521463
11885	0.521565
11953.6	0.521668
12022.6	0.521771
12092.1	0.521873
12161.9	0.521976
12232.1	0.522079
12302.7	0.522181
12373.7	0.522284
12445.1	0.522387
12517	0.522489
12589.3	0.522592
12661.9	0.522695
12735	0.522797
12808.6	0.5229
12882.5	0.523003
12956.9	0.523105
13031.7	0.523208
13106.9	0.523311
13182.6	0.523413
13258.7	0.523516
13335.2	0.523619
13412.2	0.523721
13489.6	0.523824
13567.5	0.523927
13645.8	0.524029
13724.6	0.524132
13803.8	0.524235
13883.5	0.524337
13963.7	0.52444
14044.3	0.524543
14125.4	0.524645
14206.9	0.524748
14288.9	0.52485
14371.4	0.524953
14454.4	0.525056
14537.8	0.525158
14621.8	0.525261
14706.2	0.525364
14791.1	0.525466
14876.5	0.525569
14962.4	0.525672
15048.7	0.525774
15135.6	0.525877
15223	0.52598
15310.9	0.526082
15399.3	0.526185
15488.2	0.526288
15577.6	0.52639
15667.5	0.526493
15758	0.526596
15848.9	0.526698
15940.4	0.526801
16032.5	0.526904
16125	0.527006
16218.1	0.527109
16311.7	0.527212
16405.9	0.527314
16500.6	0.527417
16595.9	0.52752
16691.7	0.527622
16788	0.527725
16885	0.527828
16982.4	0.52793
17080.5	0.528033
17179.1	0.528136
17278.3	0.528238
17378	0.528341
17478.3	0.528443
17579.2	0.528546
17680.7	0.528649
17782.8	0.528751
17885.5	0.528854
17988.7	0.528957
18092.6	0.529059
18197	0.529162
18302.1	0.529265
18407.7	0.529367
18514	0.52947
18620.9	0.529573
18728.4	0.529675
18836.5	0.529778
18945.2	0.529881
19054.6	0.529983
19164.6	0.530086
19275.2	0.530189
19386.5	0.530291
19498.4	0.530394
19611	0.530497
19724.2	0.530599
19838.1	0.530702
19952.6	0.530805
20067.8	0.530907
20183.7	0.53101
20300.2	0.531113
20417.4	0.531215
20535.3	0.531318
20653.8	0.531421
20773	0.531523
20893	0.531626
21013.6	0.531729
21134.9	0.531831
21256.9	0.531934
21379.6	0.532036
21503	0.532139
21627.2	0.532242
21752	0.532344
21877.6	0.532447
22003.9	0.53255
22130.9	0.532652
22258.7	0.532755
22387.2	0.532858
22516.5	0.53296
22646.4	0.533063
22777.2	0.533166
22908.7	0.533268
23040.9	0.533371
23173.9	0.533474
23307.7	0.533576
23442.3	0.533679
23577.6	0.533782
23713.7	0.533884
23850.6	0.533987
23988.3	0.53409
24126.8	0.534192
24266.1	0.534295
24406.2	0.534398
24547.1	0.5345
24688.8	0.534603
24831.3	0.534706
24974.7	0.534808
25118.9	0.534911
25263.9	0.535014
25409.7	0.535116
25556.4	0.535219
25704	0.535321
25852.3	0.535424
26001.6	0.535527
26151.7	0.535629
26302.7	0.535732
26454.5	0.535835
26607.3	0.535937
26760.9	0.53604
26915.3	0.536143
27070.7	0.536245
27227	0.536348
27384.2	0.536451
27542.3	0.536553
27701.3	0.536656
27861.2	0.536759
28022.1	0.536861
28183.8	0.536964
28346.5	0.537067
28510.2	0.537169
28674.8	0.537272
28840.3	0.537375
29006.8	0.537477
29174.3	0.53758
29342.7	0.537683
29512.1	0.537785
29682.5	0.537888
29853.8	0.537991
30026.2	0.538093
30199.5	0.538196
30373.9	0.538298
30549.2	0.538401
30725.6	0.538504
30903	0.538606
31081.4	0.538709
31260.8	0.538812
31441.3	0.538914
31622.8	0.539017
31805.3	0.53912
31989	0.539222
32173.6	0.539325
32359.4	0.539428
32546.2	0.53953
32734.1	0.539633
32923	0.539736
33113.1	0.539838
33304.3	0.539941
33496.5	0.540044
33689.9	0.540146
33884.4	0.540249
34080	0.540352
34276.8	0.540454
34474.7	0.540557
34673.7	0.54066
34873.9	0.540762
35075.2	0.540865
35277.7	0.540968
35481.3	0.54107
35686.2	0.541173
35892.2	0.541275
36099.4	0.541378
36307.8	0.541481
36517.4	0.541583
36728.2	0.541686
36940.3	0.541789
37153.5	0.541891
37368	0.541994
37583.7	0.542097
37800.7	0.542199
38018.9	0.542302
38238.4	0.542405
38459.2	0.542507
38681.2	0.54261
38904.5	0.542713
39129.1	0.542815
39355	0.542918
39582.2	0.543021
39810.7	0.543123
40040.5	0.543226
40271.7	0.543329
40504.2	0.543431
40738	0.543534
40973.2	0.543637
41209.8	0.543739
41447.7	0.543842
41686.9	0.543945
41927.6	0.544047
42169.7	0.54415
42413.1	0.544252
42658	0.544355
42904.2	0.544458
43151.9	0.54456
43401	0.544663
43651.6	0.544766
43903.6	0.544868
44157	0.544971
44412	0.545074
44668.4	0.545176
44926.2	0.545279
45185.6	0.545382
45446.5	0.545484
45708.8	0.545587
45972.7	0.54569
46238.1	0.545792
46505	0.545895
46773.5	0.545998
47043.5	0.5461
47315.1	0.546203
47588.3	0.546306
47863	0.546408
48139.3	0.546511
48417.2	0.546614
48696.8	0.546716
48977.9	0.546819
49260.6	0.546922
49545	0.547024
49831	0.547127
50118.7	0.547229
50408.1	0.547332
50699.1	0.547435
50991.8	0.547537
51286.1	0.54764
51582.2	0.547743
51880	0.547845
52179.5	0.547948
52480.7	0.548051
52783.7	0.548153
53088.4	0.548256
53394.9	0.548359
53703.2	0.548461
54013.2	0.548564
54325	0.548667
54638.7	0.548769
54954.1	0.548872
55271.3	0.548975
55590.4	0.549077
55911.4	0.54918
56234.1	0.549283
56558.8	0.549385
56885.3	0.549488
57213.7	0.549591
57544	0.549693
57876.2	0.549796
58210.3	0.549899
58546.4	0.550001
58884.4	0.550104
59224.3	0.550206
59566.2	0.550309
59910.1	0.550412
60256	0.550514
60603.8	0.550617
60953.7	0.55072
61305.6	0.550822
61659.5	0.550925
62015.5	0.551028
62373.5	0.55113
62733.6	0.551233
63095.7	0.551336
63460	0.551438
63826.3	0.551541
64194.8	0.551644
64565.4	0.551746
64938.2	0.551849
65313.1	0.551952
65690.1	0.552054
66069.3	0.552157
66450.8	0.55226
66834.4	0.552362
67220.2	0.552465
67608.3	0.552568
67998.6	0.55267
68391.2	0.552773
68786	0.552875
69183.1	0.552978
69582.5	0.553081
69984.2	0.553183
70388.2	0.553286
70794.6	0.553389
71203.3	0.553491
71614.3	0.553594
72027.8	0.553697
72443.6	0.553799
72861.8	0.553902
73282.5	0.554005
73705.5	0.554107
74131	0.55421
74559	0.554313
74989.4	0.554415
75422.3	0.554518
75857.8	0.554621
76295.7	0.554723
76736.1	0.554826
77179.2	0.554929
77624.7	0.555031
78072.8	0.555134
78523.6	0.555237
78976.9	0.555339
79432.8	0.555442
79891.4	0.555545
80352.6	0.555647
80816.5	0.55575
81283.1	0.555852
81752.3	0.555955
82224.3	0.556058
82699	0.55616
83176.4	0.556263
83656.6	0.556366
84139.5	0.556468
84625.3	0.556571
85113.8	0.556674
85605.2	0.556776
86099.4	0.556879
86596.4	0.556982
87096.4	0.557084
87599.2	0.557187
88104.9	0.55729
88613.5	0.557392
89125.1	0.557495
89639.6	0.557598
90157.1	0.5577
90677.6	0.557803
91201.1	0.557906
91727.6	0.558008
92257.1	0.558111
92789.7	0.558214
93325.4	0.558316
93864.2	0.558419
94406.1	0.558521
94951.1	0.558624
95499.3	0.558727
96050.6	0.558829
96605.1	0.558932
97162.8	0.559035
97723.7	0.559137
98287.9	0.55924
98855.3	0.559343
99426	0.559445
100000	0.559548
100577	0.559651
101158	0.559753
101742	0.559856
102329	0.559959
102920	0.560061
103514	0.560164
104112	0.560267
104713	0.560369
105317	0.560472
105925	0.560575
106537	0.560677
107152	0.56078
107771	0.560883
108393	0.560985
109018	0.561088
109648	0.56119
110281	0.561293
110917	0.561396
111558	0.561498
112202	0.561601
112850	0.561704
113501	0.561806
114156	0.561909
114815	0.562012
115478	0.562114
116145	0.562217
116815	0.56232
117490	0.562422
118168	0.562525
118850	0.562628
119536	0.56273
120226	0.562833
120921	0.562936
121619	0.563038
122321	0.563141
123027	0.563244
123737	0.563346
124451	0.563449
125170	0.563552
125893	0.563654
126619	0.563757
127350	0.563859
128086	0.563962
128825	0.564065
129569	0.564167
130317	0.56427
131069	0.564373
131826	0.564475
132587	0.564578
133352	0.564681
134122	0.564783
134896	0.564886
135675	0.564989
136458	0.565091
137246	0.565194
138038	0.565297
138835	0.565399
139637	0.565502
140443	0.565605
141254	0.565707
142069	0.56581
142889	0.565913
143714	0.566015
144544	0.566118
145378	0.566221
146218	0.566323
147062	0.566426
147911	0.566528
148765	0.566631
149624	0.566734
150487	0.566836
151356	0.566939
152230	0.567042
153109	0.567144
153993	0.567247
154882	0.56735
155776	0.567452
156675	0.567555
157580	0.567658
158489	0.56776
159404	0.567863
160325	0.567966
161250	0.568068
162181	0.568171
163117	0.568274
164059	0.568376
165006	0.568479
165959	0.568582
166917	0.568684
167880	0.568787
168850	0.56889
169824	0.568992
170805	0.569095
171791	0.569197
172783	0.5693
173780	0.569403
174783	0.569505
175792	0.569608
176807	0.569711
177828	0.569813
178855	0.569916
179887	0.570019
180926	0.570121
181970	0.570224
183021	0.570327
184077	0.570429
185140	0.570532
186209	0.570635
187284	0.570737
188365	0.57084
189452	0.570943
190546	0.571045
191646	0.571148
192752	0.571251
193865	0.571353
194984	0.571456
196110	0.571559
197242	0.571661
198381	0.571764
199526	0.571866
200678	0.571969
201837	0.572072
203002	0.572174
204174	0.572277
205353	0.57238
206538	0.572482
207730	0.572585
208930	0.572688
210136	0.57279
211349	0.572893
212569	0.572996
213796	0.573098
215030	0.573201
216272	0.573304
217520	0.573406
218776	0.573509
220039	0.573612
221309	0.573714
222587	0.573817
223872	0.57392
225165	0.574022
226464	0.574125
227772	0.574228
229087	0.57433
230409	0.574433
231739	0.574535
233077	0.574638
234423	0.574741
235776	0.574843
237137	0.574946
238506	0.575049
239883	0.575151
241268	0.575254
242661	0.575357
244062	0.575459
245471	0.575562
246888	0.575665
248313	0.575767
249747	0.57587
251189	0.575973
252639	0.576075
254097	0.576178
255564	0.576281
257040	0.576383
258523	0.576486
260016	0.576589
261517	0.576691
263027	0.576794
264545	0.576897
266073	0.576999
267609	0.577102
269153	0.577204
270707	0.577307
272270	0.57741
273842	0.577512
275423	0.577615
277013	0.577718
278612	0.57782
280221	0.577923
281838	0.578026
283465	0.578128
285102	0.578231
286748	0.578334
288403	0.578436
290068	0.578539
291743	0.578642
293427	0.578744
295121	0.578847
296825	0.57895
298538	0.579052
300262	0.579155
301995	0.579258
303739	0.57936
305492	0.579463
307256	0.579566
309030	0.579668
310814	0.579771
312608	0.579873
314413	0.579976
316228	0.580079
318053	0.580181
319890	0.580284
321736	0.580387
323594	0.580489
325462	0.580592
327341	0.580695
329230	0.580797
331131	0.5809
333043	0.581003
334965	0.581105
336899	0.581208
338844	0.581311
340800	0.581413
342768	0.581516
344747	0.581619
346737	0.581721
348739	0.581824
350752	0.581927
352777	0.582029
354813	0.582132
356862	0.582235
358922	0.582337
360994	0.58244
363078	0.582542
365174	0.582645
367282	0.582748
369403	0.58285
371535	0.582953
373680	0.583056
375837	0.583158
378007	0.583261
380189	0.583364
382384	0.583466
384592	0.583569
386812	0.583672
389045	0.583774
391291	0.583877
393550	0.58398
395822	0.584082
398107	0.584185
400405	0.584288
402717	0.58439
405042	0.584493
407380	0.584596
409732	0.584698
412098	0.584801
414477	0.584904
416869	0.585006
419276	0.585109
421697	0.585211
424131	0.585314
426580	0.585417
429042	0.585519
431519	0.585622
434010	0.585725
436516	0.585827
439036	0.58593
441570	0.586033
444120	0.586135
446684	0.586238
449262	0.586341
451856	0.586443
454465	0.586546
457088	0.586649
459727	0.586751
462381	0.586854
465050	0.586957
467735	0.587059
470435	0.587162
473151	0.587265
475883	0.587367
478630	0.58747
481393	0.587573
484172	0.587675
486968	0.587778
489779	0.58788
492606	0.587983
495450	0.588086
498310	0.588188
501187	0.588291
504081	0.588394
506991	0.588496
509918	0.588599
512861	0.588702
515822	0.588804
518800	0.588907
521795	0.58901
524807	0.589112
527837	0.589215
530884	0.589318
533949	0.58942
537032	0.589523
540132	0.589626
543250	0.589728
546387	0.589831
549541	0.589934
552713	0.590036
555904	0.590139
559114	0.590242
562341	0.590344
565588	0.590447
568853	0.590549
572137	0.590652
575440	0.590755
578762	0.590857
582103	0.59096
585464	0.591063
588844	0.591165
592243	0.591268
595662	0.591371
599101	0.591473
602560	0.591576
606038	0.591679
609537	0.591781
613056	0.591884
616595	0.591987
620155	0.592089
623735	0.592192
627336	0.592295
630957	0.592397
634600	0.5925
638263	0.592603
641948	0.592705
645654	0.592808
649382	0.592911
653131	0.593013
656901	0.593116
660693	0.593218
664508	0.593321
668344	0.593424
672202	0.593526
676083	0.593629
679986	0.593732
683912	0.593834
687860	0.593937
691831	0.59404
695825	0.594142
699842	0.594245
703882	0.594348
707946	0.59445
712033	0.594553
716143	0.594656
720278	0.594758
724436	0.594861
728618	0.594964
732825	0.595066
737055	0.595169
741310	0.595272
745590	0.595374
749894	0.595477
754223	0.59558
758578	0.595682
762957	0.595785
767361	0.595887
771792	0.59599
776247	0.596093
780728	0.596195
785236	0.596298
789769	0.596401
794328	0.596503
798914	0.596606
803526	0.596709
808165	0.596811
812831	0.596914
817523	0.597017
822243	0.597119
826990	0.597222
831764	0.597325
836566	0.597427
841395	0.59753
846253	0.597633
851138	0.597735
856052	0.597838
860994	0.597941
865964	0.598043
870964	0.598146
875992	0.598249
881049	0.598351
886135	0.598454
891251	0.598556
896396	0.598659
901571	0.598762
906776	0.598864
912011	0.598967
917276	0.59907
922571	0.599172
927897	0.599275
933254	0.599378
938642	0.59948
944061	0.599583
949511	0.599686
954993	0.599788
960506	0.599891
966051	0.599994
971628	0.600096
977237	0.600199
982879	0.600302
988553	0.600404
994260	0.600507
1e+06	0.60061
1.00577e+06	0.600712
1.01158e+06	0.600815
1.01742e+06	0.600917
1.02329e+06	0.60102
1.0292e+06	0.601123
1.03514e+06	0.601225
1.04112e+06	0.601328
1.04713e+06	0.601431
1.05317e+06	0.601533
1.05925e+06	0.601636
1.06537e+06	0.601739
1.07152e+06	0.601841
1.07771e+06	0.601944
1.08393e+06	0.602047
1.09018e+06	0.602149
1.09648e+06	0.602252
1.10281e+06	0.602355
1.10917e+06	0.602457
1.11558e+06	0.60256
1.12202e+06	0.602663
1.1285e+06	0.602765
1.13501e+06	0.602868
1.14156e+06	0.602971
1.14815e+06	0.603073
1.15478e+06	0.603176
1.16145e+06	0.603279
1.16815e+06	0.603381
1.1749e+06	0.603484
1.18168e+06	0.603586
1.1885e+06	0.603689
1.19536e+06	0.603792
1.20226e+06	0.603894
1.20921e+06	0.603997
1.21619e+06	0.6041
1.22321e+06	0.604202
1.23027e+06	0.604305
1.23737e+06	0.604408
1.24451e+06	0.60451
1.2517e+06	0.604613
1.25893e+06	0.604716
1.26619e+06	0.604818
1.2735e+06	0.604921
1.28086e+06	0.605024
1.28825e+06	0.605126
1.29569e+06	0.605229
1.30317e+06	0.605332
1.31069e+06	0.605434
1.31826e+06	0.605537
1.32587e+06	0.60564
1.33352e+06	0.605742
1.34122e+06	0.605845
1.34896e+06	0.605948
1.35675e+06	0.60605
1.36458e+06	0.606153
1.37246e+06	0.606255
1.38038e+06	0.606358
1.38835e+06	0.606461
1.39637e+06	0.606563
1.40443e+06	0.606666
1.41254e+06	0.606769
1.42069e+06	0.606871
1.42889e+06	0.606974
1.43714e+06	0.607077
1.44544e+06	0.607179
1.45378e+06	0.607282
1.46218e+06	0.607385
1.47062e+06	0.607487
1.47911e+06	0.60759
1.48765e+06	0.607693
1.49624e+06	0.607795
1.50487e+06	0.607898
1.51356e+06	0.608001
1.5223e+06	0.608103
1.53109e+06	0.608206
1.53993e+06	0.608309
1.54882e+06	0.608411
1.55776e+06	0.608514
1.56675e+06	0.608617
1.5758e+06	0.608719
1.58489e+06	0.608822
1.59404e+06	0.608924
1.60325e+06	0.609027
1.6125e+06	0.60913
1.62181e+06	0.609232
1.63117e+06	0.609335
1.64059e+06	0.609438
1.65006e+06	0.60954
1.65959e+06	0.609643
1.66917e+06	0.609746
1.6788e+06	0.609848
1.6885e+06	0.609951
1.69824e+06	0.610054
1.70805e+06	0.610156
1.71791e+06	0.610259
1.72783e+06	0.610362
1.7378e+06	0.610464
1.74783e+06	0.610567
1.75792e+06	0.61067
1.76807e+06	0.610772
1.77828e+06	0.610875
1.78855e+06	0.610978
1.79887e+06	0.61108
1.80926e+06	0.611183
1.8197e+06	0.611286
1.83021e+06	0.611388
1.84077e+06	0.611491
1.8514e+06	0.611593
1.86209e+06	0.611696
1.87284e+06	0.611799
1.88365e+06	0.611901
1.89452e+06	0.612004
1.90546e+06	0.612107
1.91646e+06	0.612209
1.92752e+06	0.612312
1.93865e+06	0.612415
1.94984e+06	0.612517
1.9611e+06	0.61262
1.97242e+06	0.612723
1.98381e+06	0.612825
1.99526e+06	0.612928
2.00678e+06	0.613031
2.01837e+06	0.613133
2.03002e+06	0.613236
2.04174e+06	0.613339
2.05353e+06	0.613441
2.06538e+06	0.613544
2.0773e+06	0.613647
2.0893e+06	0.613749
2.10136e+06	0.613852
2.11349e+06	0.613955
2.12569e+06	0.614057
2.13796e+06	0.61416
2.1503e+06	0.614262
2.16272e+06	0.614365
2.1752e+06	0.614468
2.18776e+06	0.61457
2.20039e+06	0.614673
2.21309e+06	0.614776
2.22587e+06	0.614878
2.23872e+06	0.614981
2.25165e+06	0.615084
2.26464e+06	0.615186
2.27772e+06	0.615289
2.29087e+06	0.615392
2.30409e+06	0.615494
2.31739e+06	0.615597
2.33077e+06	0.6157
2.34423e+06	0.615802
2.35776e+06	0.615905
2.37137e+06	0.616008
2.38506e+06	0.61611
2.39883e+06	0.616213
2.41268e+06	0.616316
2.42661e+06	0.616418
2.44062e+06	0.616521
2.45471e+06	0.616624
2.46888e+06	0.616726
2.48313e+06	0.616829
2.49747e+06	0.616931
2.51189e+06	0.617034
2.52639e+06	0.617137
2.54097e+06	0.617239
2.55564e+06	0.617342
2.5704e+06	0.617445
2.58523e+06	0.617547
2.60016e+06	0.61765
2.61517e+06	0.617753
2.63027e+06	0.617855
2.64545e+06	0.617958
2.66073e+06	0.618061
2.67609e+06	0.618163
2.69153e+06	0.618266
2.70707e+06	0.618369
2.7227e+06	0.618471
2.73842e+06	0.618574
2.75423e+06	0.618677
2.77013e+06	0.618779
2.78612e+06	0.618882
2.80221e+06	0.618985
2.81838e+06	0.619087
2.83465e+06	0.61919
2.85102e+06	0.619292
2.86748e+06	0.619395
2.88403e+06	0.619498
2.90068e+06	0.6196
2.91743e+06	0.619703
2.93427e+06	0.619806
2.95121e+06	0.619908
2.96825e+06	0.620011
2.98538e+06	0.620114
3.00262e+06	0.620216
3.01995e+06	0.620319
3.03739e+06	0.620422
3.05492e+06	0.620524
3.07256e+06	0.620627
3.0903e+06	0.62073
3.10814e+06	0.620832
3.12608e+06	0.620935
3.14413e+06	0.621038
3.16228e+06	0.62114
3.18053e+06	0.621243
3.1989e+06	0.621346
3.21736e+06	0.621448
3.23594e+06	0.621551
3.25462e+06	0.621654
3.27341e+06	0.621756
3.2923e+06	0.621859
3.31131e+06	0.621961
3.33043e+06	0.622064
3.34965e+06	0.622167
3.36899e+06	0.622269
3.38844e+06	0.622372
3.408e+06	0.622475
3.42768e+06	0.622577
3.44747e+06	0.62268
3.46737e+06	0.622783
3.48739e+06	0.622885
3.50752e+06	0.622988
3.52777e+06	0.623091
3.54813e+06	0.623193
3.56862e+06	0.623296
3.58922e+06	0.623399
3.60994e+06	0.623501
3.63078e+06	0.623604
3.65174e+06	0.623707
3.67282e+06	0.623809
3.69403e+06	0.623912
3.71535e+06	0.624015
3.7368e+06	0.624117
3.75837e+06	0.62422
3.78007e+06	0.624323
3.80189e+06	0.624425
3.82384e+06	0.624528
3.84592e+06	0.62463
3.86812e+06	0.624733
3.89045e+06	0.624836
3.91291e+06	0.624938
3.9355e+06	0.625041
3.95822e+06	0.625144
3.98107e+06	0.625246
4.00405e+06	0.625349
4.02717e+06	0.625452
4.05042e+06	0.625554
4.0738e+06	0.625657
4.09732e+06	0.62576
4.12098e+06	0.625862
4.14477e+06	0.625965
4.16869e+06	0.626068
4.19276e+06	0.62617
4.21697e+06	0.626273
4.24131e+06	0.626376
4.2658e+06	0.626478
4.29042e+06	0.626581
4.31519e+06	0.626684
4.3401e+06	0.626786
4.36516e+06	0.626889
4.39036e+06	0.626992
4.4157e+06	0.627094
4.4412e+06	0.627197
4.46684e+06	0.627299
4.49262e+06	0.627402
4.51856e+06	0.627505
4.54465e+06	0.627607
4.57088e+06	0.62771
4.59727e+06	0.627813
4.62381e+06	0.627915
4.6505e+06	0.628018
4.67735e+06	0.628121
4.70435e+06	0.628223
4.73151e+06	0.628326
4.75883e+06	0.628429
4.7863e+06	0.628531
4.81393e+06	0.628634
4.84172e+06	0.628737
4.86968e+06	0.628839
4.89779e+06	0.628942
4.92606e+06	0.629045
4.9545e+06	0.629147
4.9831e+06	0.62925
5.01187e+06	0.629353
5.04081e+06	0.629455
5.06991e+06	0.629558
5.09918e+06	0.629661
5.12861e+06	0.629763
5.15822e+06	0.629866
5.188e+06	0.629968
5.21795e+06	0.630071
5.24807e+06	0.630174
5.27837e+06	0.630276
5.30884e+06	0.630379
5.33949e+06	0.630482
5.37032e+06	0.630584
5.40132e+06	0.630687
5.4325e+06	0.63079
5.46387e+06	0.630892
5.49541e+06	0.630995
5.52713e+06	0.631098
5.55904e+06	0.6312
5.59114e+06	0.631303
5.62341e+06	0.631406
5.65588e+06	0.631508
5.68853e+06	0.631611
5.72137e+06	0.631714
5.7544e+06	0.631816
5.78762e+06	0.631919
5.82103e+06	0.632022
5.85464e+06	0.632124
5.88844e+06	0.632227
5.92243e+06	0.632329
5.95662e+06	0.632432
5.99101e+06	0.632535
6.0256e+06	0.632637
6.06038e+06	0.63274
6.09537e+06	0.632843
6.13056e+06	0.632945
6.16595e+06	0.633048
6.20155e+06	0.633151
6.23735e+06	0.633253
6.27336e+06	0.633356
6.30957e+06	0.633459
6.346e+06	0.633561
6.38263e+06	0.633664
6.41948e+06	0.633767
6.45654e+06	0.633869
6.49382e+06	0.633972
6.53131e+06	0.634075
6.56901e+06	0.634177
6.60693e+06	0.63428
6.64508e+06	0.634383
6.68344e+06	0.634485
6.72202e+06	0.634588
6.76083e+06	0.634691
6.79986e+06	0.634793
6.83912e+06	0.634896
6.8786e+06	0.634998
6.91831e+06	0.635101
6.95825e+06	0.635204
6.99842e+06	0.635306
7.03882e+06	0.635409
7.07946e+06	0.635512
7.12033e+06	0.635614
7.16143e+06	0.635717
7.20278e+06	0.63582
7.24436e+06	0.635922
7.28618e+06	0.636025
7.32825e+06	0.636128
7.37055e+06	0.63623
7.4131e+06	0.636333
7.4559e+06	0.636436
7.49894e+06	0.636538
7.54223e+06	0.636641
7.58578e+06	0.636744
7.62957e+06	0.636846
7.67361e+06	0.636949
7.71792e+06	0.637052
7.76247e+06	0.637154
7.80728e+06	0.637257
7.85236e+06	0.63736
7.89769e+06	0.637462
7.94328e+06	0.637565
7.98914e+06	0.637667
8.03526e+06	0.63777
8.08165e+06	0.637873
8.12831e+06	0.637975
8.17523e+06	0.638078
8.22243e+06	0.638181
8.2699e+06	0.638283
8.31764e+06	0.638386
8.36566e+06	0.638489
8.41395e+06	0.638591
8.46253e+06	0.638694
8.51138e+06	0.638797
8.56052e+06	0.638899
8.60994e+06	0.639002
8.65964e+06	0.639105
8.70964e+06	0.639207
8.75992e+06	0.63931
8.81049e+06	0.639413
8.86135e+06	0.639515
8.91251e+06	0.639618
8.96396e+06	0.639721
9.01571e+06	0.639823
9.06776e+06	0.639926
9.12011e+06	0.640029
9.17276e+06	0.640131
9.22571e+06	0.640234
9.27897e+06	0.640336
9.33254e+06	0.640439
9.38642e+06	0.640542
9.44061e+06	0.640644
9.49511e+06	0.640747
9.54993e+06	0.64085
9.60506e+06	0.640952
9.66051e+06	0.641055
9.71628e+06	0.641158
9.77237e+06	0.64126
9.82879e+06	0.641363
9.88553e+06	0.641466
9.9426e+06	0.641568
1e+07	0.641671
