Stopping power dEdx from Ionisation for e- Z = 0 in G4_Si, process name: eIoni
E [MeV]	dEdx [MeV/mm]
0.001	17.4224
0.00100577	17.3749
0.00101158	17.3274
0.00101742	17.2799
0.00102329	17.2323
0.0010292	17.1847
0.00103514	17.1371
0.00104112	17.0895
0.00104713	17.0419
0.00105317	16.9943
0.00105925	16.9466
0.00106537	16.8989
0.00107152	16.8513
0.00107771	16.8036
0.00108393	16.7559
0.00109018	16.7082
0.00109648	16.6606
0.00110281	16.6129
0.00110917	16.5652
0.00111558	16.5175
0.00112202	16.4698
0.0011285	16.4222
0.00113501	16.3745
0.00114156	16.3268
0.00114815	16.2792
0.00115478	16.2316
0.00116145	16.184
0.00116815	16.1363
0.0011749	16.0888
0.00118168	16.0412
0.0011885	15.9936
0.00119536	15.9461
0.00120226	15.8986
0.00120921	15.8511
0.00121619	15.8037
0.00122321	15.7562
0.00123027	15.7088
0.00123737	15.6615
0.00124451	15.6141
0.0012517	15.5668
0.00125893	15.5195
0.00126619	15.4723
0.0012735	15.425
0.00128086	15.3779
0.00128825	15.3307
0.00129569	15.2836
0.00130317	15.2365
0.00131069	15.1895
0.00131826	15.1425
0.00132587	15.0956
0.00133352	15.0487
0.00134122	15.0018
0.00134896	14.955
0.00135675	14.9082
0.00136458	14.8615
0.00137246	14.8148
0.00138038	14.7682
0.00138835	14.7216
0.00139637	14.6751
0.00140443	14.6287
0.00141254	14.5822
0.00142069	14.5359
0.00142889	14.4896
0.00143714	14.4433
0.00144544	14.3971
0.00145378	14.351
0.00146218	14.3049
0.00147062	14.2589
0.00147911	14.213
0.00148765	14.1671
0.00149624	14.1212
0.00150487	14.0755
0.00151356	14.0297
0.0015223	13.9841
0.00153109	13.9385
0.00153993	13.893
0.00154882	13.8476
0.00155776	13.8022
0.00156675	13.7569
0.0015758	13.7116
0.00158489	13.6665
0.00159404	13.6214
0.00160325	13.5763
0.0016125	13.5314
0.00162181	13.4865
0.00163117	13.4417
0.00164059	13.3969
0.00165006	13.3523
0.00165959	13.3077
0.00166917	13.2632
0.0016788	13.2187
0.0016885	13.1744
0.00169824	13.1301
0.00170805	13.0859
0.00171791	13.0417
0.00172783	12.9977
0.0017378	12.9537
0.00174783	12.9098
0.00175792	12.866
0.00176807	12.8223
0.00177828	12.7786
0.00178855	12.7351
0.00179887	12.6916
0.00180926	12.6482
0.0018197	12.6049
0.00183021	12.5616
0.00184077	12.5185
0.0018514	12.4754
0.00186209	12.4325
0.00187284	12.3896
0.00188365	12.3468
0.00189452	12.304
0.00190546	12.2614
0.00191646	12.2189
0.00192752	12.1764
0.00193865	12.134
0.00194984	12.0918
0.0019611	12.0496
0.00197242	12.0075
0.00198381	11.9655
0.00199526	11.9235
0.00200678	11.8817
0.00201837	11.84
0.00203002	11.7983
0.00204174	11.7568
0.00205353	11.7153
0.00206538	11.6739
0.0020773	11.6327
0.0020893	11.5915
0.00210136	11.5504
0.00211349	11.5094
0.00212569	11.4685
0.00213796	11.4277
0.0021503	11.3869
0.00216272	11.3463
0.0021752	11.3058
0.00218776	11.2654
0.00220039	11.225
0.00221309	11.1848
0.00222587	11.1446
0.00223872	11.1046
0.00225165	11.0646
0.00226464	11.0248
0.00227772	10.985
0.00229087	10.9454
0.00230409	10.9058
0.00231739	10.8663
0.00233077	10.827
0.00234423	10.7877
0.00235776	10.7485
0.00237137	10.7094
0.00238506	10.6704
0.00239883	10.6316
0.00241268	10.5928
0.00242661	10.5541
0.00244062	10.5155
0.00245471	10.477
0.00246888	10.4386
0.00248313	10.4004
0.00249747	10.3622
0.00251189	10.3241
0.00252639	10.2861
0.00254097	10.2482
0.00255564	10.2104
0.0025704	10.1727
0.00258523	10.1351
0.00260016	10.0976
0.00261517	10.0603
0.00263027	10.023
0.00264545	9.98578
0.00266073	9.94869
0.00267609	9.9117
0.00269153	9.87482
0.00270707	9.83803
0.0027227	9.80135
0.00273842	9.76476
0.00275423	9.72828
0.00277013	9.6919
0.00278612	9.65562
0.00280221	9.61944
0.00281838	9.58336
0.00283465	9.54738
0.00285102	9.51151
0.00286748	9.47573
0.00288403	9.44006
0.00290068	9.40449
0.00291743	9.36901
0.00293427	9.33364
0.00295121	9.29838
0.00296825	9.26321
0.00298538	9.22814
0.00300262	9.19318
0.00301995	9.15831
0.00303739	9.12355
0.00305492	9.08889
0.00307256	9.05433
0.0030903	9.01987
0.00310814	8.98552
0.00312608	8.95126
0.00314413	8.91711
0.00316228	8.88305
0.00318053	8.8491
0.0031989	8.81525
0.00321736	8.7815
0.00323594	8.74785
0.00325462	8.7143
0.00327341	8.68086
0.0032923	8.64751
0.00331131	8.61427
0.00333043	8.58112
0.00334965	8.54808
0.00336899	8.51513
0.00338844	8.48229
0.003408	8.44955
0.00342768	8.41691
0.00344747	8.38437
0.00346737	8.35193
0.00348739	8.31959
0.00350752	8.28735
0.00352777	8.25521
0.00354813	8.22317
0.00356862	8.19123
0.00358922	8.15939
0.00360994	8.12765
0.00363078	8.09601
0.00365174	8.06446
0.00367282	8.03302
0.00369403	8.00168
0.00371535	7.97044
0.0037368	7.93929
0.00375837	7.90825
0.00378007	7.8773
0.00380189	7.84646
0.00382384	7.81571
0.00384592	7.78506
0.00386812	7.75451
0.00389045	7.72406
0.00391291	7.6937
0.0039355	7.66344
0.00395822	7.63329
0.00398107	7.60323
0.00400405	7.57326
0.00402717	7.5434
0.00405042	7.51363
0.0040738	7.48396
0.00409732	7.45439
0.00412098	7.42492
0.00414477	7.39554
0.00416869	7.36626
0.00419276	7.33707
0.00421697	7.30798
0.00424131	7.27899
0.0042658	7.2501
0.00429042	7.2213
0.00431519	7.1926
0.0043401	7.16399
0.00436516	7.13548
0.00439036	7.10706
0.0044157	7.07874
0.0044412	7.05052
0.00446684	7.02239
0.00449262	6.99435
0.00451856	6.96641
0.00454465	6.93857
0.00457088	6.91082
0.00459727	6.88316
0.00462381	6.8556
0.0046505	6.82813
0.00467735	6.80075
0.00470435	6.77347
0.00473151	6.74629
0.00475883	6.71919
0.0047863	6.69219
0.00481393	6.66528
0.00484172	6.63847
0.00486968	6.61174
0.00489779	6.58511
0.00492606	6.55858
0.0049545	6.53213
0.0049831	6.50578
0.00501187	6.47951
0.00504081	6.45334
0.00506991	6.42727
0.00509918	6.40128
0.00512861	6.37538
0.00515822	6.34957
0.005188	6.32386
0.00521795	6.29823
0.00524807	6.2727
0.00527837	6.24726
0.00530884	6.2219
0.00533949	6.19664
0.00537032	6.17146
0.00540132	6.14637
0.0054325	6.12138
0.00546387	6.09647
0.00549541	6.07165
0.00552713	6.04692
0.00555904	6.02228
0.00559114	5.99772
0.00562341	5.97326
0.00565588	5.94888
0.00568853	5.92459
0.00572137	5.90039
0.0057544	5.87627
0.00578762	5.85224
0.00582103	5.8283
0.00585464	5.80444
0.00588844	5.78067
0.00592243	5.75699
0.00595662	5.73339
0.00599101	5.70988
0.0060256	5.68646
0.00606038	5.66312
0.00609537	5.63986
0.00613056	5.61669
0.00616595	5.59361
0.00620155	5.57061
0.00623735	5.54769
0.00627336	5.52486
0.00630957	5.50211
0.006346	5.47945
0.00638263	5.45687
0.00641948	5.43437
0.00645654	5.41195
0.00649382	5.38962
0.00653131	5.36738
0.00656901	5.34521
0.00660693	5.32313
0.00664508	5.30112
0.00668344	5.2792
0.00672202	5.25737
0.00676083	5.23561
0.00679986	5.21393
0.00683912	5.19234
0.0068786	5.17083
0.00691831	5.14939
0.00695825	5.12804
0.00699842	5.10677
0.00703882	5.08558
0.00707946	5.06446
0.00712033	5.04343
0.00716143	5.02248
0.00720278	5.0016
0.00724436	4.98081
0.00728618	4.96009
0.00732825	4.93945
0.00737055	4.91889
0.0074131	4.89841
0.0074559	4.87801
0.00749894	4.85768
0.00754223	4.83743
0.00758578	4.81726
0.00762957	4.79717
0.00767361	4.77715
0.00771792	4.75721
0.00776247	4.73734
0.00780728	4.71755
0.00785236	4.69784
0.00789769	4.6782
0.00794328	4.65864
0.00798914	4.63916
0.00803526	4.61975
0.00808165	4.60041
0.00812831	4.58115
0.00817523	4.56196
0.00822243	4.54285
0.0082699	4.52381
0.00831764	4.50484
0.00836566	4.48595
0.00841395	4.46713
0.00846253	4.44839
0.00851138	4.42972
0.00856052	4.41112
0.00860994	4.39259
0.00865964	4.37414
0.00870964	4.35575
0.00875992	4.33744
0.00881049	4.3192
0.00886135	4.30104
0.00891251	4.28294
0.00896396	4.26491
0.00901571	4.24696
0.00906776	4.22908
0.00912011	4.21126
0.00917276	4.19352
0.00922571	4.17584
0.00927897	4.15824
0.00933254	4.14071
0.00938642	4.12324
0.00944061	4.10585
0.00949511	4.08852
0.00954993	4.07126
0.00960506	4.05407
0.00966051	4.03695
0.00971628	4.0199
0.00977237	4.00291
0.00982879	3.98599
0.00988553	3.96914
0.0099426	3.95236
0.01	3.93564
0.0100577	3.91899
0.0101158	3.90241
0.0101742	3.88589
0.0102329	3.86944
0.010292	3.85306
0.0103514	3.83674
0.0104112	3.82048
0.0104713	3.8043
0.0105317	3.78817
0.0105925	3.77211
0.0106537	3.75612
0.0107152	3.74019
0.0107771	3.72433
0.0108393	3.70853
0.0109018	3.69279
0.0109648	3.67712
0.0110281	3.66151
0.0110917	3.64596
0.0111558	3.63048
0.0112202	3.61506
0.011285	3.5997
0.0113501	3.5844
0.0114156	3.56917
0.0114815	3.554
0.0115478	3.53889
0.0116145	3.52384
0.0116815	3.50885
0.011749	3.49393
0.0118168	3.47906
0.011885	3.46426
0.0119536	3.44952
0.0120226	3.43483
0.0120921	3.42021
0.0121619	3.40565
0.0122321	3.39114
0.0123027	3.3767
0.0123737	3.36232
0.0124451	3.34799
0.012517	3.33373
0.0125893	3.31952
0.0126619	3.30537
0.012735	3.29128
0.0128086	3.27725
0.0128825	3.26328
0.0129569	3.24936
0.0130317	3.2355
0.0131069	3.2217
0.0131826	3.20796
0.0132587	3.19427
0.0133352	3.18064
0.0134122	3.16706
0.0134896	3.15355
0.0135675	3.14009
0.0136458	3.12668
0.0137246	3.11333
0.0138038	3.10004
0.0138835	3.0868
0.0139637	3.07362
0.0140443	3.06049
0.0141254	3.04742
0.0142069	3.0344
0.0142889	3.02144
0.0143714	3.00853
0.0144544	2.99567
0.0145378	2.98287
0.0146218	2.97012
0.0147062	2.95743
0.0147911	2.94479
0.0148765	2.9322
0.0149624	2.91966
0.0150487	2.90718
0.0151356	2.89475
0.015223	2.88238
0.0153109	2.87005
0.0153993	2.85778
0.0154882	2.84556
0.0155776	2.83339
0.0156675	2.82127
0.015758	2.80921
0.0158489	2.79719
0.0159404	2.78523
0.0160325	2.77331
0.016125	2.76145
0.0162181	2.74964
0.0163117	2.73787
0.0164059	2.72616
0.0165006	2.7145
0.0165959	2.70289
0.0166917	2.69132
0.016788	2.67981
0.016885	2.66834
0.0169824	2.65693
0.0170805	2.64556
0.0171791	2.63424
0.0172783	2.62297
0.017378	2.61175
0.0174783	2.60057
0.0175792	2.58945
0.0176807	2.57837
0.0177828	2.56734
0.0178855	2.55636
0.0179887	2.54542
0.0180926	2.53453
0.018197	2.52369
0.0183021	2.51289
0.0184077	2.50214
0.018514	2.49144
0.0186209	2.48078
0.0187284	2.47017
0.0188365	2.45961
0.0189452	2.44909
0.0190546	2.43861
0.0191646	2.42818
0.0192752	2.4178
0.0193865	2.40746
0.0194984	2.39717
0.019611	2.38692
0.0197242	2.37671
0.0198381	2.36655
0.0199526	2.35644
0.0200678	2.34636
0.0201837	2.33633
0.0203002	2.32635
0.0204174	2.31641
0.0205353	2.30651
0.0206538	2.29665
0.020773	2.28684
0.020893	2.27707
0.0210136	2.26735
0.0211349	2.25766
0.0212569	2.24802
0.0213796	2.23842
0.021503	2.22886
0.0216272	2.21935
0.021752	2.20987
0.0218776	2.20044
0.0220039	2.19105
0.0221309	2.1817
0.0222587	2.17239
0.0223872	2.16312
0.0225165	2.15389
0.0226464	2.14471
0.0227772	2.13556
0.0229087	2.12645
0.0230409	2.11739
0.0231739	2.10836
0.0233077	2.09938
0.0234423	2.09043
0.0235776	2.08152
0.0237137	2.07266
0.0238506	2.06383
0.0239883	2.05504
0.0241268	2.04629
0.0242661	2.03758
0.0244062	2.0289
0.0245471	2.02027
0.0246888	2.01167
0.0248313	2.00311
0.0249747	1.99459
0.0251189	1.98611
0.0252639	1.97767
0.0254097	1.96926
0.0255564	1.96089
0.025704	1.95256
0.0258523	1.94426
0.0260016	1.936
0.0261517	1.92778
0.0263027	1.9196
0.0264545	1.91145
0.0266073	1.90334
0.0267609	1.89526
0.0269153	1.88722
0.0270707	1.87922
0.027227	1.87125
0.0273842	1.86332
0.0275423	1.85542
0.0277013	1.84756
0.0278612	1.83973
0.0280221	1.83194
0.0281838	1.82419
0.0283465	1.81647
0.0285102	1.80878
0.0286748	1.80113
0.0288403	1.79351
0.0290068	1.78593
0.0291743	1.77838
0.0293427	1.77087
0.0295121	1.76339
0.0296825	1.75594
0.0298538	1.74853
0.0300262	1.74115
0.0301995	1.7338
0.0303739	1.72649
0.0305492	1.71921
0.0307256	1.71196
0.030903	1.70475
0.0310814	1.69756
0.0312608	1.69042
0.0314413	1.6833
0.0316228	1.67621
0.0318053	1.66916
0.031989	1.66214
0.0321736	1.65515
0.0323594	1.6482
0.0325462	1.64127
0.0327341	1.63438
0.032923	1.62752
0.0331131	1.62069
0.0333043	1.61389
0.0334965	1.60712
0.0336899	1.60038
0.0338844	1.59368
0.03408	1.587
0.0342768	1.58036
0.0344747	1.57374
0.0346737	1.56716
0.0348739	1.5606
0.0350752	1.55408
0.0352777	1.54758
0.0354813	1.54112
0.0356862	1.53468
0.0358922	1.52828
0.0360994	1.5219
0.0363078	1.51556
0.0365174	1.50924
0.0367282	1.50295
0.0369403	1.49669
0.0371535	1.49046
0.037368	1.48426
0.0375837	1.47809
0.0378007	1.47194
0.0380189	1.46582
0.0382384	1.45974
0.0384592	1.45368
0.0386812	1.44764
0.0389045	1.44164
0.0391291	1.43566
0.039355	1.42972
0.0395822	1.4238
0.0398107	1.4179
0.0400405	1.41204
0.0402717	1.4062
0.0405042	1.40039
0.040738	1.3946
0.0409732	1.38884
0.0412098	1.38311
0.0414477	1.37741
0.0416869	1.37173
0.0419276	1.36608
0.0421697	1.36045
0.0424131	1.35485
0.042658	1.34928
0.0429042	1.34373
0.0431519	1.33821
0.043401	1.33272
0.0436516	1.32725
0.0439036	1.32181
0.044157	1.31639
0.044412	1.311
0.0446684	1.30563
0.0449262	1.30029
0.0451856	1.29497
0.0454465	1.28968
0.0457088	1.28441
0.0459727	1.27917
0.0462381	1.27395
0.046505	1.26875
0.0467735	1.26359
0.0470435	1.25844
0.0473151	1.25332
0.0475883	1.24822
0.047863	1.24315
0.0481393	1.2381
0.0484172	1.23308
0.0486968	1.22808
0.0489779	1.2231
0.0492606	1.21815
0.049545	1.21322
0.049831	1.20831
0.0501187	1.20343
0.0504081	1.19857
0.0506991	1.19373
0.0509918	1.18892
0.0512861	1.18413
0.0515822	1.17936
0.05188	1.17461
0.0521795	1.16989
0.0524807	1.16519
0.0527837	1.16051
0.0530884	1.15585
0.0533949	1.15122
0.0537032	1.14661
0.0540132	1.14202
0.054325	1.13745
0.0546387	1.1329
0.0549541	1.12838
0.0552713	1.12388
0.0555904	1.11939
0.0559114	1.11493
0.0562341	1.1105
0.0565588	1.10608
0.0568853	1.10168
0.0572137	1.09731
0.057544	1.09295
0.0578762	1.08862
0.0582103	1.08431
0.0585464	1.08002
0.0588844	1.07575
0.0592243	1.0715
0.0595662	1.06727
0.0599101	1.06306
0.060256	1.05887
0.0606038	1.0547
0.0609537	1.05055
0.0613056	1.04642
0.0616595	1.04232
0.0620155	1.03823
0.0623735	1.03416
0.0627336	1.03011
0.0630957	1.02608
0.06346	1.02207
0.0638263	1.01808
0.0641948	1.01411
0.0645654	1.01016
0.0649382	1.00623
0.0653131	1.00231
0.0656901	0.998417
0.0660693	0.994542
0.0664508	0.990686
0.0668344	0.986848
0.0672202	0.983029
0.0676083	0.979229
0.0679986	0.975447
0.0683912	0.971684
0.068786	0.967939
0.0691831	0.964213
0.0695825	0.960505
0.0699842	0.956815
0.0703882	0.953143
0.0707946	0.949489
0.0712033	0.945853
0.0716143	0.942235
0.0720278	0.938635
0.0724436	0.935052
0.0728618	0.931488
0.0732825	0.92794
0.0737055	0.92441
0.074131	0.920898
0.074559	0.917403
0.0749894	0.913925
0.0754223	0.910465
0.0758578	0.907021
0.0762957	0.903595
0.0767361	0.900185
0.0771792	0.896793
0.0776247	0.893417
0.0780728	0.890058
0.0785236	0.886716
0.0789769	0.88339
0.0794328	0.880081
0.0798914	0.876788
0.0803526	0.873512
0.0808165	0.870252
0.0812831	0.867008
0.0817523	0.863781
0.0822243	0.860569
0.082699	0.857374
0.0831764	0.854194
0.0836566	0.851031
0.0841395	0.847883
0.0846253	0.844752
0.0851138	0.841635
0.0856052	0.838535
0.0860994	0.83545
0.0865964	0.832381
0.0870964	0.829327
0.0875992	0.826288
0.0881049	0.823265
0.0886135	0.820257
0.0891251	0.817264
0.0896396	0.814286
0.0901571	0.811323
0.0906776	0.808375
0.0912011	0.805442
0.0917276	0.802524
0.0922571	0.799621
0.0927897	0.796733
0.0933254	0.793859
0.0938642	0.791
0.0944061	0.788155
0.0949511	0.785325
0.0954993	0.782509
0.0960506	0.779707
0.0966051	0.77692
0.0971628	0.774147
0.0977237	0.771388
0.0982879	0.768643
0.0988553	0.765913
0.099426	0.763196
0.1	0.760493
0.100577	0.757804
0.101158	0.755129
0.101742	0.752467
0.102329	0.749819
0.10292	0.747185
0.103514	0.744565
0.104112	0.741957
0.104713	0.739364
0.105317	0.736783
0.105925	0.734216
0.106537	0.731663
0.107152	0.729122
0.107771	0.726595
0.108393	0.724081
0.109018	0.721579
0.109648	0.719091
0.110281	0.716616
0.110917	0.714153
0.111558	0.711704
0.112202	0.709267
0.11285	0.706842
0.113501	0.704431
0.114156	0.702032
0.114815	0.699645
0.115478	0.697271
0.116145	0.69491
0.116815	0.692561
0.11749	0.690224
0.118168	0.687899
0.11885	0.685587
0.119536	0.683287
0.120226	0.680999
0.120921	0.678723
0.121619	0.676459
0.122321	0.674207
0.123027	0.671966
0.123737	0.669738
0.124451	0.667522
0.12517	0.665317
0.125893	0.663124
0.126619	0.660942
0.12735	0.658772
0.128086	0.656614
0.128825	0.654467
0.129569	0.652332
0.130317	0.650208
0.131069	0.648095
0.131826	0.645994
0.132587	0.643904
0.133352	0.641825
0.134122	0.639757
0.134896	0.6377
0.135675	0.635655
0.136458	0.63362
0.137246	0.631596
0.138038	0.629584
0.138835	0.627582
0.139637	0.625591
0.140443	0.62361
0.141254	0.621641
0.142069	0.619682
0.142889	0.617733
0.143714	0.615796
0.144544	0.613868
0.145378	0.611952
0.146218	0.610045
0.147062	0.608149
0.147911	0.606264
0.148765	0.604389
0.149624	0.602524
0.150487	0.600669
0.151356	0.598824
0.15223	0.59699
0.153109	0.595165
0.153993	0.593351
0.154882	0.591547
0.155776	0.589752
0.156675	0.587968
0.15758	0.586193
0.158489	0.584428
0.159404	0.582673
0.160325	0.580928
0.16125	0.579193
0.162181	0.577467
0.163117	0.57575
0.164059	0.574044
0.165006	0.572346
0.165959	0.570659
0.166917	0.56898
0.16788	0.567312
0.16885	0.565652
0.169824	0.564002
0.170805	0.562361
0.171791	0.560729
0.172783	0.559107
0.17378	0.557493
0.174783	0.555889
0.175792	0.554294
0.176807	0.552708
0.177828	0.551131
0.178855	0.549563
0.179887	0.548004
0.180926	0.546454
0.18197	0.544912
0.183021	0.543379
0.184077	0.541856
0.18514	0.540341
0.186209	0.538834
0.187284	0.537336
0.188365	0.535847
0.189452	0.534367
0.190546	0.532895
0.191646	0.531431
0.192752	0.529976
0.193865	0.528529
0.194984	0.527091
0.19611	0.525661
0.197242	0.52424
0.198381	0.522826
0.199526	0.521421
0.200678	0.520025
0.201837	0.518636
0.203002	0.517256
0.204174	0.515883
0.205353	0.514519
0.206538	0.513163
0.20773	0.511815
0.20893	0.510474
0.210136	0.509142
0.211349	0.507817
0.212569	0.506501
0.213796	0.505192
0.21503	0.503891
0.216272	0.502598
0.21752	0.501313
0.218776	0.500035
0.220039	0.498765
0.221309	0.497502
0.222587	0.496247
0.223872	0.495
0.225165	0.49376
0.226464	0.492528
0.227772	0.491303
0.229087	0.490086
0.230409	0.488876
0.231739	0.487673
0.233077	0.486478
0.234423	0.48529
0.235776	0.484109
0.237137	0.482935
0.238506	0.481769
0.239883	0.48061
0.241268	0.479458
0.242661	0.478313
0.244062	0.477175
0.245471	0.476045
0.246888	0.474921
0.248313	0.473804
0.249747	0.472694
0.251189	0.471591
0.252639	0.470495
0.254097	0.469406
0.255564	0.468324
0.25704	0.467249
0.258523	0.46618
0.260016	0.465118
0.261517	0.464063
0.263027	0.463014
0.264545	0.461972
0.266073	0.460937
0.267609	0.459909
0.269153	0.458887
0.270707	0.457871
0.27227	0.456862
0.273842	0.455859
0.275423	0.454863
0.277013	0.453874
0.278612	0.452891
0.280221	0.451914
0.281838	0.450943
0.283465	0.449979
0.285102	0.449021
0.286748	0.448069
0.288403	0.447124
0.290068	0.446185
0.291743	0.445252
0.293427	0.444325
0.295121	0.443404
0.296825	0.442489
0.298538	0.441581
0.300262	0.440678
0.301995	0.439782
0.303739	0.438891
0.305492	0.438006
0.307256	0.437128
0.30903	0.436255
0.310814	0.435388
0.312608	0.434527
0.314413	0.433672
0.316228	0.432822
0.318053	0.431979
0.31989	0.431141
0.321736	0.430309
0.323594	0.429482
0.325462	0.428662
0.327341	0.427846
0.32923	0.427037
0.331131	0.426233
0.333043	0.425435
0.334965	0.424642
0.336899	0.423855
0.338844	0.423073
0.3408	0.422297
0.342768	0.421526
0.344747	0.420761
0.346737	0.420001
0.348739	0.419246
0.350752	0.418497
0.352777	0.417753
0.354813	0.417014
0.356862	0.416281
0.358922	0.415553
0.360994	0.41483
0.363078	0.414112
0.365174	0.4134
0.367282	0.412693
0.369403	0.41199
0.371535	0.411293
0.37368	0.410601
0.375837	0.409915
0.378007	0.409233
0.380189	0.408556
0.382384	0.407884
0.384592	0.407217
0.386812	0.406555
0.389045	0.405898
0.391291	0.405246
0.39355	0.404599
0.395822	0.403957
0.398107	0.403319
0.400405	0.402687
0.402717	0.402059
0.405042	0.401436
0.40738	0.400818
0.409732	0.400204
0.412098	0.399595
0.414477	0.398991
0.416869	0.398391
0.419276	0.397796
0.421697	0.397206
0.424131	0.39662
0.42658	0.396039
0.429042	0.395463
0.431519	0.394891
0.43401	0.394323
0.436516	0.39376
0.439036	0.393201
0.44157	0.392647
0.44412	0.392098
0.446684	0.391552
0.449262	0.391022
0.451856	0.390505
0.454465	0.389992
0.457088	0.389484
0.459727	0.38898
0.462381	0.388479
0.46505	0.387983
0.467735	0.387491
0.470435	0.387004
0.473151	0.38652
0.475883	0.38604
0.47863	0.385565
0.481393	0.385094
0.484172	0.384626
0.486968	0.384163
0.489779	0.383703
0.492606	0.383248
0.49545	0.382796
0.49831	0.382349
0.501187	0.381905
0.504081	0.381465
0.506991	0.381029
0.509918	0.380597
0.512861	0.380169
0.515822	0.379745
0.5188	0.379324
0.521795	0.378908
0.524807	0.378495
0.527837	0.378086
0.530884	0.37768
0.533949	0.377279
0.537032	0.376881
0.540132	0.376486
0.54325	0.376096
0.546387	0.375709
0.549541	0.375326
0.552713	0.374946
0.555904	0.37457
0.559114	0.374198
0.562341	0.373829
0.565588	0.373464
0.568853	0.373102
0.572137	0.372744
0.57544	0.372389
0.578762	0.372038
0.582103	0.37169
0.585464	0.371346
0.588844	0.371005
0.592243	0.370668
0.595662	0.370334
0.599101	0.370004
0.60256	0.369676
0.606038	0.369353
0.609537	0.369032
0.613056	0.368715
0.616595	0.368402
0.620155	0.368091
0.623735	0.367784
0.627336	0.36748
0.630957	0.36718
0.6346	0.366882
0.638263	0.366588
0.641948	0.366297
0.645654	0.36601
0.649382	0.365725
0.653131	0.365444
0.656901	0.365166
0.660693	0.364891
0.664508	0.364619
0.668344	0.36435
0.672202	0.364084
0.676083	0.363822
0.679986	0.363562
0.683912	0.363305
0.68786	0.363052
0.691831	0.362801
0.695825	0.362554
0.699842	0.36231
0.703882	0.362068
0.707946	0.361829
0.712033	0.361594
0.716143	0.361361
0.720278	0.361131
0.724436	0.360905
0.728618	0.360681
0.732825	0.36046
0.737055	0.360241
0.74131	0.360026
0.74559	0.359813
0.749894	0.359604
0.754223	0.359397
0.758578	0.359192
0.762957	0.358991
0.767361	0.358792
0.771792	0.358597
0.776247	0.358403
0.780728	0.358213
0.785236	0.358025
0.789769	0.35784
0.794328	0.357658
0.798914	0.357478
0.803526	0.357301
0.808165	0.357126
0.812831	0.356955
0.817523	0.356785
0.822243	0.356619
0.82699	0.356455
0.831764	0.356293
0.836566	0.356134
0.841395	0.355978
0.846253	0.355824
0.851138	0.355672
0.856052	0.355523
0.860994	0.355377
0.865964	0.355233
0.870964	0.355092
0.875992	0.354952
0.881049	0.354816
0.886135	0.354682
0.891251	0.35455
0.896396	0.35442
0.901571	0.354293
0.906776	0.354169
0.912011	0.354046
0.917276	0.353926
0.922571	0.353809
0.927897	0.353693
0.933254	0.35358
0.938642	0.353469
0.944061	0.353361
0.949511	0.353255
0.954993	0.353151
0.960506	0.353049
0.966051	0.352949
0.971628	0.352852
0.977237	0.352757
0.982879	0.352664
0.988553	0.352573
0.99426	0.352484
1	0.352398
1.00577	0.352313
1.01158	0.352231
1.01742	0.352151
1.02329	0.352073
1.0292	0.351997
1.03514	0.351923
1.04112	0.351851
1.04713	0.351782
1.05317	0.351714
1.05925	0.351648
1.06537	0.351584
1.07152	0.351523
1.07771	0.351463
1.08393	0.351405
1.09018	0.351349
1.09648	0.351295
1.10281	0.351244
1.10917	0.351194
1.11558	0.351146
1.12202	0.351099
1.1285	0.351055
1.13501	0.351013
1.14156	0.350972
1.14815	0.350934
1.15478	0.350897
1.16145	0.350862
1.16815	0.350829
1.1749	0.350797
1.18168	0.350768
1.1885	0.35074
1.19536	0.350714
1.20226	0.35069
1.20921	0.350667
1.21619	0.350647
1.22321	0.350628
1.23027	0.35061
1.23737	0.350595
1.24451	0.350581
1.2517	0.350569
1.25893	0.350558
1.26619	0.350549
1.2735	0.350542
1.28086	0.350537
1.28825	0.350533
1.29569	0.350531
1.30317	0.35053
1.31069	0.350531
1.31826	0.350533
1.32587	0.350537
1.33352	0.350543
1.34122	0.35055
1.34896	0.350559
1.35675	0.350569
1.36458	0.350581
1.37246	0.350595
1.38038	0.350609
1.38835	0.350626
1.39637	0.350644
1.40443	0.350663
1.41254	0.350684
1.42069	0.350706
1.42889	0.35073
1.43714	0.350755
1.44544	0.350781
1.45378	0.350809
1.46218	0.350839
1.47062	0.350869
1.47911	0.350901
1.48765	0.350935
1.49624	0.35097
1.50487	0.351006
1.51356	0.351044
1.5223	0.351083
1.53109	0.351123
1.53993	0.351164
1.54882	0.351207
1.55776	0.351251
1.56675	0.351297
1.5758	0.351343
1.58489	0.351391
1.59404	0.351441
1.60325	0.351491
1.6125	0.351543
1.62181	0.351596
1.63117	0.35165
1.64059	0.351705
1.65006	0.351762
1.65959	0.35182
1.66917	0.351878
1.6788	0.351939
1.6885	0.352
1.69824	0.352062
1.70805	0.352126
1.71791	0.352191
1.72783	0.352256
1.7378	0.352323
1.74783	0.352392
1.75792	0.352461
1.76807	0.352531
1.77828	0.352602
1.78855	0.352675
1.79887	0.352748
1.80926	0.352823
1.8197	0.352898
1.83021	0.352975
1.84077	0.353053
1.8514	0.353131
1.86209	0.353211
1.87284	0.353292
1.88365	0.353374
1.89452	0.353456
1.90546	0.35354
1.91646	0.353625
1.92752	0.35371
1.93865	0.353797
1.94984	0.353885
1.9611	0.353973
1.97242	0.354062
1.98381	0.354153
1.99526	0.354244
2.00678	0.354336
2.01837	0.354429
2.03002	0.354523
2.04174	0.354618
2.05353	0.354714
2.06538	0.35481
2.0773	0.354908
2.0893	0.355006
2.10136	0.355105
2.11349	0.355205
2.12569	0.355306
2.13796	0.355408
2.1503	0.35551
2.16272	0.355614
2.1752	0.355718
2.18776	0.355823
2.20039	0.355928
2.21309	0.356035
2.22587	0.356142
2.23872	0.35625
2.25165	0.356359
2.26464	0.356468
2.27772	0.356578
2.29087	0.356689
2.30409	0.356801
2.31739	0.356913
2.33077	0.357026
2.34423	0.35714
2.35776	0.357255
2.37137	0.35737
2.38506	0.357486
2.39883	0.357603
2.41268	0.35772
2.42661	0.357838
2.44062	0.357956
2.45471	0.358076
2.46888	0.358196
2.48313	0.358316
2.49747	0.358437
2.51189	0.358559
2.52639	0.358682
2.54097	0.358805
2.55564	0.358928
2.5704	0.359053
2.58523	0.359177
2.60016	0.359303
2.61517	0.359429
2.63027	0.359555
2.64545	0.359683
2.66073	0.35981
2.67609	0.359939
2.69153	0.360067
2.70707	0.360197
2.7227	0.360327
2.73842	0.360457
2.75423	0.360588
2.77013	0.36072
2.78612	0.360852
2.80221	0.360984
2.81838	0.361117
2.83465	0.361251
2.85102	0.361385
2.86748	0.361519
2.88403	0.361654
2.90068	0.36179
2.91743	0.361926
2.93427	0.362062
2.95121	0.362199
2.96825	0.362336
2.98538	0.362474
3.00262	0.362612
3.01995	0.362751
3.03739	0.36289
3.05492	0.36303
3.07256	0.36317
3.0903	0.36331
3.10814	0.363451
3.12608	0.363592
3.14413	0.363734
3.16228	0.363876
3.18053	0.364018
3.1989	0.364161
3.21736	0.364304
3.23594	0.364447
3.25462	0.364591
3.27341	0.364735
3.2923	0.36488
3.31131	0.365025
3.33043	0.36517
3.34965	0.365316
3.36899	0.365462
3.38844	0.365608
3.408	0.365755
3.42768	0.365902
3.44747	0.366049
3.46737	0.366197
3.48739	0.366345
3.50752	0.366493
3.52777	0.366642
3.54813	0.366791
3.56862	0.36694
3.58922	0.367089
3.60994	0.367239
3.63078	0.367389
3.65174	0.367539
3.67282	0.36769
3.69403	0.367841
3.71535	0.367992
3.7368	0.368143
3.75837	0.368295
3.78007	0.368447
3.80189	0.368599
3.82384	0.368751
3.84592	0.368904
3.86812	0.369057
3.89045	0.36921
3.91291	0.369363
3.9355	0.369517
3.95822	0.369671
3.98107	0.369825
4.00405	0.369979
4.02717	0.370133
4.05042	0.370288
4.0738	0.370443
4.09732	0.370598
4.12098	0.370753
4.14477	0.370908
4.16869	0.371064
4.19276	0.37122
4.21697	0.371376
4.24131	0.371532
4.2658	0.371688
4.29042	0.371845
4.31519	0.372001
4.3401	0.372158
4.36516	0.372315
4.39036	0.372472
4.4157	0.37263
4.4412	0.372787
4.46684	0.372945
4.49262	0.373102
4.51856	0.37326
4.54465	0.373418
4.57088	0.373576
4.59727	0.373735
4.62381	0.373893
4.6505	0.374052
4.67735	0.37421
4.70435	0.374369
4.73151	0.374528
4.75883	0.374687
4.7863	0.374846
4.81393	0.375005
4.84172	0.375164
4.86968	0.375324
4.89779	0.375483
4.92606	0.375643
4.9545	0.375803
4.9831	0.375962
5.01187	0.376122
5.04081	0.376282
5.06991	0.376442
5.09918	0.376602
5.12861	0.376762
5.15822	0.376923
5.188	0.377083
5.21795	0.377243
5.24807	0.377404
5.27837	0.377564
5.30884	0.377725
5.33949	0.377886
5.37032	0.378046
5.40132	0.378207
5.4325	0.378368
5.46387	0.378529
5.49541	0.37869
5.52713	0.37885
5.55904	0.379011
5.59114	0.379172
5.62341	0.379333
5.65588	0.379495
5.68853	0.379656
5.72137	0.379817
5.7544	0.379978
5.78762	0.380139
5.82103	0.3803
5.85464	0.380462
5.88844	0.380623
5.92243	0.380784
5.95662	0.380945
5.99101	0.381107
6.0256	0.381268
6.06038	0.381429
6.09537	0.38159
6.13056	0.381752
6.16595	0.381913
6.20155	0.382074
6.23735	0.382236
6.27336	0.382397
6.30957	0.382558
6.346	0.382719
6.38263	0.382881
6.41948	0.383042
6.45654	0.383203
6.49382	0.383364
6.53131	0.383526
6.56901	0.383687
6.60693	0.383848
6.64508	0.384009
6.68344	0.38417
6.72202	0.384331
6.76083	0.384492
6.79986	0.384653
6.83912	0.384814
6.8786	0.384975
6.91831	0.385136
6.95825	0.385297
6.99842	0.385458
7.03882	0.385619
7.07946	0.385779
7.12033	0.38594
7.16143	0.386101
7.20278	0.386261
7.24436	0.386422
7.28618	0.386582
7.32825	0.386743
7.37055	0.386903
7.4131	0.387064
7.4559	0.387224
7.49894	0.387384
7.54223	0.387544
7.58578	0.387705
7.62957	0.387865
7.67361	0.388025
7.71792	0.388185
7.76247	0.388345
7.80728	0.388504
7.85236	0.388664
7.89769	0.388824
7.94328	0.388983
7.98914	0.389143
8.03526	0.389302
8.08165	0.389462
8.12831	0.389621
8.17523	0.38978
8.22243	0.38994
8.2699	0.390099
8.31764	0.390258
8.36566	0.390417
8.41395	0.390575
8.46253	0.390734
8.51138	0.390893
8.56052	0.391051
8.60994	0.39121
8.65964	0.391368
8.70964	0.391527
8.75992	0.391685
8.81049	0.391843
8.86135	0.392001
8.91251	0.392159
8.96396	0.392317
9.01571	0.392475
9.06776	0.392633
9.12011	0.39279
9.17276	0.392948
9.22571	0.393105
9.27897	0.393262
9.33254	0.39342
9.38642	0.393577
9.44061	0.393734
9.49511	0.393891
9.54993	0.394047
9.60506	0.394204
9.66051	0.394361
9.71628	0.394517
9.77237	0.394673
9.82879	0.39483
9.88553	0.394986
9.9426	0.395142
10	0.395298
10.0577	0.395454
10.1158	0.395609
10.1742	0.395765
10.2329	0.395921
10.292	0.396076
10.3514	0.396231
10.4112	0.396386
10.4713	0.396541
10.5317	0.396696
10.5925	0.396851
10.6537	0.397006
10.7152	0.39716
10.7771	0.397315
10.8393	0.397469
10.9018	0.397623
10.9648	0.397778
11.0281	0.397931
11.0917	0.398085
11.1558	0.398239
11.2202	0.398393
11.285	0.398546
11.3501	0.3987
11.4156	0.398853
11.4815	0.399006
11.5478	0.399159
11.6145	0.399312
11.6815	0.399465
11.749	0.399617
11.8168	0.39977
11.885	0.399922
11.9536	0.400074
12.0226	0.400226
12.0921	0.400378
12.1619	0.40053
12.2321	0.400682
12.3027	0.400834
12.3737	0.400985
12.4451	0.401136
12.517	0.401288
12.5893	0.401439
12.6619	0.40159
12.735	0.40174
12.8086	0.401891
12.8825	0.402042
12.9569	0.402192
13.0317	0.402342
13.1069	0.402492
13.1826	0.402642
13.2587	0.402792
13.3352	0.402942
13.4122	0.403092
13.4896	0.403241
13.5675	0.403391
13.6458	0.40354
13.7246	0.403689
13.8038	0.403838
13.8835	0.403987
13.9637	0.404135
14.0443	0.404284
14.1254	0.404432
14.2069	0.40458
14.2889	0.404728
14.3714	0.404876
14.4544	0.405024
14.5378	0.405172
14.6218	0.40532
14.7062	0.405467
14.7911	0.405614
14.8765	0.405761
14.9624	0.405908
15.0487	0.406055
15.1356	0.406202
15.223	0.406348
15.3109	0.406495
15.3993	0.406641
15.4882	0.406787
15.5776	0.406933
15.6675	0.407079
15.758	0.407225
15.8489	0.407371
15.9404	0.407516
16.0325	0.407661
16.125	0.407807
16.2181	0.407952
16.3117	0.408097
16.4059	0.408241
16.5006	0.408386
16.5959	0.40853
16.6917	0.408675
16.788	0.408819
16.885	0.408963
16.9824	0.409107
17.0805	0.409251
17.1791	0.409394
17.2783	0.409538
17.378	0.409681
17.4783	0.409824
17.5792	0.409967
17.6807	0.41011
17.7828	0.410253
17.8855	0.410396
17.9887	0.410538
18.0926	0.41068
18.197	0.410823
18.3021	0.410965
18.4077	0.411107
18.514	0.411248
18.6209	0.41139
18.7284	0.411531
18.8365	0.411673
18.9452	0.411814
19.0546	0.411955
19.1646	0.412096
19.2752	0.412237
19.3865	0.412377
19.4984	0.412518
19.611	0.412658
19.7242	0.412798
19.8381	0.412939
19.9526	0.413078
20.0678	0.413218
20.1837	0.413358
20.3002	0.413497
20.4174	0.413637
20.5353	0.413776
20.6538	0.413915
20.773	0.414054
20.893	0.414193
21.0136	0.414331
21.1349	0.41447
21.2569	0.414608
21.3796	0.414747
21.503	0.414885
21.6272	0.415023
21.752	0.41516
21.8776	0.415298
22.0039	0.415436
22.1309	0.415573
22.2587	0.41571
22.3872	0.415847
22.5165	0.415984
22.6464	0.416121
22.7772	0.416258
22.9087	0.416395
23.0409	0.416531
23.1739	0.416667
23.3077	0.416803
23.4423	0.416939
23.5776	0.417075
23.7137	0.417211
23.8506	0.417347
23.9883	0.417482
24.1268	0.417617
24.2661	0.417752
24.4062	0.417887
24.5471	0.418022
24.6888	0.418157
24.8313	0.418292
24.9747	0.418426
25.1189	0.418561
25.2639	0.418695
25.4097	0.418829
25.5564	0.418963
25.704	0.419097
25.8523	0.41923
26.0016	0.419364
26.1517	0.419497
26.3027	0.419631
26.4545	0.419764
26.6073	0.419897
26.7609	0.420029
26.9153	0.420162
27.0707	0.420295
27.227	0.420427
27.3842	0.42056
27.5423	0.420692
27.7013	0.420824
27.8612	0.420956
28.0221	0.421088
28.1838	0.421219
28.3465	0.421351
28.5102	0.421482
28.6748	0.421613
28.8403	0.421745
29.0068	0.421876
29.1743	0.422006
29.3427	0.422137
29.5121	0.422268
29.6825	0.422398
29.8538	0.422529
30.0262	0.422659
30.1995	0.422789
30.3739	0.422919
30.5492	0.423049
30.7256	0.423178
30.903	0.423308
31.0814	0.423437
31.2608	0.423567
31.4413	0.423696
31.6228	0.423825
31.8053	0.423954
31.989	0.424083
32.1736	0.424211
32.3594	0.42434
32.5462	0.424468
32.7341	0.424596
32.923	0.424725
33.1131	0.424853
33.3043	0.424981
33.4965	0.425108
33.6899	0.425236
33.8844	0.425364
34.08	0.425491
34.2768	0.425618
34.4747	0.425745
34.6737	0.425872
34.8739	0.425999
35.0752	0.426126
35.2777	0.426253
35.4813	0.426379
35.6862	0.426506
35.8922	0.426632
36.0994	0.426758
36.3078	0.426884
36.5174	0.42701
36.7282	0.427136
36.9403	0.427262
37.1535	0.427387
37.368	0.427513
37.5837	0.427638
37.8007	0.427763
38.0189	0.427889
38.2384	0.428014
38.4592	0.428138
38.6812	0.428263
38.9045	0.428388
39.1291	0.428512
39.355	0.428637
39.5822	0.428761
39.8107	0.428885
40.0405	0.429009
40.2717	0.429133
40.5042	0.429257
40.738	0.429381
40.9732	0.429504
41.2098	0.429628
41.4477	0.429751
41.6869	0.429874
41.9276	0.429997
42.1697	0.43012
42.4131	0.430243
42.658	0.430366
42.9042	0.430489
43.1519	0.430611
43.401	0.430734
43.6516	0.430856
43.9036	0.430978
44.157	0.4311
44.412	0.431222
44.6684	0.431344
44.9262	0.431466
45.1856	0.431588
45.4465	0.431709
45.7088	0.431831
45.9727	0.431952
46.2381	0.432073
46.505	0.432194
46.7735	0.432315
47.0435	0.432436
47.3151	0.432557
47.5883	0.432678
47.863	0.432798
48.1393	0.432919
48.4172	0.433039
48.6968	0.433159
48.9779	0.43328
49.2606	0.4334
49.545	0.43352
49.831	0.433639
50.1187	0.433759
50.4081	0.433879
50.6991	0.433998
50.9918	0.434118
51.2861	0.434237
51.5822	0.434356
51.88	0.434475
52.1795	0.434594
52.4807	0.434713
52.7837	0.434832
53.0884	0.434951
53.3949	0.435069
53.7032	0.435188
54.0132	0.435306
54.325	0.435425
54.6387	0.435543
54.9541	0.435661
55.2713	0.435779
55.5904	0.435897
55.9114	0.436015
56.2341	0.436132
56.5588	0.43625
56.8853	0.436368
57.2137	0.436485
57.544	0.436602
57.8762	0.43672
58.2103	0.436837
58.5464	0.436954
58.8844	0.437071
59.2243	0.437188
59.5662	0.437304
59.9101	0.437421
60.256	0.437538
60.6038	0.437654
60.9537	0.43777
61.3056	0.437887
61.6595	0.438003
62.0155	0.438119
62.3735	0.438235
62.7336	0.438351
63.0957	0.438467
63.46	0.438583
63.8263	0.438698
64.1948	0.438814
64.5654	0.438929
64.9382	0.439045
65.3131	0.43916
65.6901	0.439275
66.0693	0.43939
66.4508	0.439505
66.8344	0.43962
67.2202	0.439735
67.6083	0.43985
67.9986	0.439965
68.3912	0.440079
68.786	0.440194
69.1831	0.440308
69.5825	0.440423
69.9842	0.440537
70.3882	0.440651
70.7946	0.440765
71.2033	0.440879
71.6143	0.440993
72.0278	0.441107
72.4436	0.441221
72.8618	0.441334
73.2825	0.441448
73.7055	0.441561
74.131	0.441675
74.559	0.441788
74.9894	0.441901
75.4223	0.442015
75.8578	0.442128
76.2957	0.442241
76.7361	0.442354
77.1792	0.442466
77.6247	0.442579
78.0728	0.442692
78.5236	0.442805
78.9769	0.442917
79.4328	0.44303
79.8914	0.443142
80.3526	0.443254
80.8165	0.443367
81.2831	0.443479
81.7523	0.443591
82.2243	0.443703
82.699	0.443815
83.1764	0.443927
83.6566	0.444038
84.1395	0.44415
84.6253	0.444262
85.1138	0.444373
85.6052	0.444485
86.0994	0.444596
86.5964	0.444708
87.0964	0.444819
87.5992	0.44493
88.1049	0.445041
88.6135	0.445152
89.1251	0.445263
89.6396	0.445374
90.1571	0.445485
90.6776	0.445596
91.2011	0.445707
91.7276	0.445817
92.2571	0.445928
92.7897	0.446038
93.3254	0.446149
93.8642	0.446259
94.4061	0.446369
94.9511	0.44648
95.4993	0.44659
96.0506	0.4467
96.6051	0.44681
97.1628	0.44692
97.7237	0.44703
98.2879	0.44714
98.8553	0.447249
99.426	0.447359
100	0.447469
100.577	0.447578
101.158	0.447688
101.742	0.447797
102.329	0.447907
102.92	0.448016
103.514	0.448125
104.112	0.448235
104.713	0.448344
105.317	0.448453
105.925	0.448562
106.537	0.448671
107.152	0.44878
107.771	0.448889
108.393	0.448997
109.018	0.449106
109.648	0.449215
110.281	0.449323
110.917	0.449432
111.558	0.44954
112.202	0.449649
112.85	0.449757
113.501	0.449866
114.156	0.449974
114.815	0.450082
115.478	0.45019
116.145	0.450298
116.815	0.450406
117.49	0.450514
118.168	0.450622
118.85	0.45073
119.536	0.450838
120.226	0.450946
120.921	0.451053
121.619	0.451161
122.321	0.451269
123.027	0.451376
123.737	0.451484
124.451	0.451591
125.17	0.451699
125.893	0.451806
126.619	0.451913
127.35	0.452021
128.086	0.452128
128.825	0.452235
129.569	0.452342
130.317	0.452449
131.069	0.452556
131.826	0.452663
132.587	0.45277
133.352	0.452877
134.122	0.452984
134.896	0.45309
135.675	0.453197
136.458	0.453304
137.246	0.45341
138.038	0.453517
138.835	0.453623
139.637	0.45373
140.443	0.453836
141.254	0.453943
142.069	0.454049
142.889	0.454155
143.714	0.454262
144.544	0.454368
145.378	0.454474
146.218	0.45458
147.062	0.454686
147.911	0.454792
148.765	0.454898
149.624	0.455004
150.487	0.45511
151.356	0.455216
152.23	0.455322
153.109	0.455428
153.993	0.455534
154.882	0.455639
155.776	0.455745
156.675	0.455851
157.58	0.455956
158.489	0.456062
159.404	0.456167
160.325	0.456273
161.25	0.456378
162.181	0.456484
163.117	0.456589
164.059	0.456694
165.006	0.4568
165.959	0.456905
166.917	0.45701
167.88	0.457115
168.85	0.457221
169.824	0.457326
170.805	0.457431
171.791	0.457536
172.783	0.457641
173.78	0.457746
174.783	0.457851
175.792	0.457956
176.807	0.458061
177.828	0.458166
178.855	0.45827
179.887	0.458375
180.926	0.45848
181.97	0.458585
183.021	0.458689
184.077	0.458794
185.14	0.458899
186.209	0.459003
187.284	0.459108
188.365	0.459212
189.452	0.459317
190.546	0.459421
191.646	0.459526
192.752	0.45963
193.865	0.459735
194.984	0.459839
196.11	0.459943
197.242	0.460048
198.381	0.460152
199.526	0.460256
200.678	0.460361
201.837	0.460465
203.002	0.460569
204.174	0.460673
205.353	0.460777
206.538	0.460881
207.73	0.460986
208.93	0.46109
210.136	0.461194
211.349	0.461298
212.569	0.461402
213.796	0.461506
215.03	0.46161
216.272	0.461714
217.52	0.461817
218.776	0.461921
220.039	0.462025
221.309	0.462129
222.587	0.462233
223.872	0.462337
225.165	0.46244
226.464	0.462544
227.772	0.462648
229.087	0.462752
230.409	0.462855
231.739	0.462959
233.077	0.463063
234.423	0.463166
235.776	0.46327
237.137	0.463373
238.506	0.463477
239.883	0.463581
241.268	0.463684
242.661	0.463788
244.062	0.463891
245.471	0.463995
246.888	0.464098
248.313	0.464202
249.747	0.464305
251.189	0.464408
252.639	0.464512
254.097	0.464615
255.564	0.464719
257.04	0.464822
258.523	0.464925
260.016	0.465029
261.517	0.465132
263.027	0.465235
264.545	0.465339
266.073	0.465442
267.609	0.465545
269.153	0.465648
270.707	0.465752
272.27	0.465855
273.842	0.465958
275.423	0.466061
277.013	0.466164
278.612	0.466268
280.221	0.466371
281.838	0.466474
283.465	0.466577
285.102	0.46668
286.748	0.466783
288.403	0.466887
290.068	0.46699
291.743	0.467093
293.427	0.467196
295.121	0.467299
296.825	0.467402
298.538	0.467505
300.262	0.467608
301.995	0.467711
303.739	0.467814
305.492	0.467917
307.256	0.46802
309.03	0.468123
310.814	0.468226
312.608	0.468329
314.413	0.468432
316.228	0.468535
318.053	0.468638
319.89	0.468741
321.736	0.468844
323.594	0.468947
325.462	0.46905
327.341	0.469153
329.23	0.469256
331.131	0.469359
333.043	0.469462
334.965	0.469565
336.899	0.469668
338.844	0.469771
340.8	0.469873
342.768	0.469976
344.747	0.470079
346.737	0.470182
348.739	0.470285
350.752	0.470388
352.777	0.470491
354.813	0.470594
356.862	0.470697
358.922	0.4708
360.994	0.470902
363.078	0.471005
365.174	0.471108
367.282	0.471211
369.403	0.471314
371.535	0.471417
373.68	0.47152
375.837	0.471623
378.007	0.471725
380.189	0.471828
382.384	0.471931
384.592	0.472034
386.812	0.472137
389.045	0.47224
391.291	0.472343
393.55	0.472445
395.822	0.472548
398.107	0.472651
400.405	0.472754
402.717	0.472857
405.042	0.47296
407.38	0.473063
409.732	0.473166
412.098	0.473268
414.477	0.473371
416.869	0.473474
419.276	0.473577
421.697	0.47368
424.131	0.473783
426.58	0.473885
429.042	0.473988
431.519	0.474091
434.01	0.474194
436.516	0.474297
439.036	0.4744
441.57	0.474503
444.12	0.474605
446.684	0.474708
449.262	0.474811
451.856	0.474914
454.465	0.475017
457.088	0.47512
459.727	0.475222
462.381	0.475325
465.05	0.475428
467.735	0.475531
470.435	0.475634
473.151	0.475737
475.883	0.475839
478.63	0.475942
481.393	0.476045
484.172	0.476148
486.968	0.476251
489.779	0.476353
492.606	0.476456
495.45	0.476559
498.31	0.476662
501.187	0.476765
504.081	0.476868
506.991	0.47697
509.918	0.477073
512.861	0.477176
515.822	0.477279
518.8	0.477382
521.795	0.477484
524.807	0.477587
527.837	0.47769
530.884	0.477793
533.949	0.477896
537.032	0.477999
540.132	0.478101
543.25	0.478204
546.387	0.478307
549.541	0.47841
552.713	0.478513
555.904	0.478615
559.114	0.478718
562.341	0.478821
565.588	0.478924
568.853	0.479027
572.137	0.479129
575.44	0.479232
578.762	0.479335
582.103	0.479438
585.464	0.479541
588.844	0.479643
592.243	0.479746
595.662	0.479849
599.101	0.479952
602.56	0.480054
606.038	0.480157
609.537	0.48026
613.056	0.480363
616.595	0.480466
620.155	0.480568
623.735	0.480671
627.336	0.480774
630.957	0.480877
634.6	0.48098
638.263	0.481082
641.948	0.481185
645.654	0.481288
649.382	0.481391
653.131	0.481494
656.901	0.481596
660.693	0.481699
664.508	0.481802
668.344	0.481905
672.202	0.482007
676.083	0.48211
679.986	0.482213
683.912	0.482316
687.86	0.482419
691.831	0.482521
695.825	0.482624
699.842	0.482727
703.882	0.48283
707.946	0.482932
712.033	0.483035
716.143	0.483138
720.278	0.483241
724.436	0.483343
728.618	0.483446
732.825	0.483549
737.055	0.483652
741.31	0.483755
745.59	0.483857
749.894	0.48396
754.223	0.484063
758.578	0.484166
762.957	0.484268
767.361	0.484371
771.792	0.484474
776.247	0.484577
780.728	0.484679
785.236	0.484782
789.769	0.484885
794.328	0.484988
798.914	0.48509
803.526	0.485193
808.165	0.485296
812.831	0.485399
817.523	0.485501
822.243	0.485604
826.99	0.485707
831.764	0.48581
836.566	0.485912
841.395	0.486015
846.253	0.486118
851.138	0.486221
856.052	0.486323
860.994	0.486426
865.964	0.486529
870.964	0.486632
875.992	0.486734
881.049	0.486837
886.135	0.48694
891.251	0.487043
896.396	0.487145
901.571	0.487248
906.776	0.487351
912.011	0.487454
917.276	0.487556
922.571	0.487659
927.897	0.487762
933.254	0.487865
938.642	0.487967
944.061	0.48807
949.511	0.488173
954.993	0.488276
960.506	0.488378
966.051	0.488481
971.628	0.488584
977.237	0.488687
982.879	0.488789
988.553	0.488892
994.26	0.488995
1000	0.489098
1005.77	0.4892
1011.58	0.489303
1017.42	0.489406
1023.29	0.489509
1029.2	0.489611
1035.14	0.489714
1041.12	0.489817
1047.13	0.489919
1053.17	0.490022
1059.25	0.490125
1065.37	0.490228
1071.52	0.49033
1077.71	0.490433
1083.93	0.490536
1090.18	0.490639
1096.48	0.490741
1102.81	0.490844
1109.17	0.490947
1115.58	0.49105
1122.02	0.491152
1128.5	0.491255
1135.01	0.491358
1141.56	0.49146
1148.15	0.491563
1154.78	0.491666
1161.45	0.491769
1168.15	0.491871
1174.9	0.491974
1181.68	0.492077
1188.5	0.49218
1195.36	0.492282
1202.26	0.492385
1209.21	0.492488
1216.19	0.49259
1223.21	0.492693
1230.27	0.492796
1237.37	0.492899
1244.51	0.493001
1251.7	0.493104
1258.93	0.493207
1266.19	0.493309
1273.5	0.493412
1280.86	0.493515
1288.25	0.493618
1295.69	0.49372
1303.17	0.493823
1310.69	0.493926
1318.26	0.494029
1325.87	0.494131
1333.52	0.494234
1341.22	0.494337
1348.96	0.494439
1356.75	0.494542
1364.58	0.494645
1372.46	0.494748
1380.38	0.49485
1388.35	0.494953
1396.37	0.495056
1404.43	0.495158
1412.54	0.495261
1420.69	0.495364
1428.89	0.495467
1437.14	0.495569
1445.44	0.495672
1453.78	0.495775
1462.18	0.495877
1470.62	0.49598
1479.11	0.496083
1487.65	0.496186
1496.24	0.496288
1504.87	0.496391
1513.56	0.496494
1522.3	0.496596
1531.09	0.496699
1539.93	0.496802
1548.82	0.496904
1557.76	0.497007
1566.75	0.49711
1575.8	0.497213
1584.89	0.497315
1594.04	0.497418
1603.25	0.497521
1612.5	0.497623
1621.81	0.497726
1631.17	0.497829
1640.59	0.497932
1650.06	0.498034
1659.59	0.498137
1669.17	0.49824
1678.8	0.498342
1688.5	0.498445
1698.24	0.498548
1708.05	0.49865
1717.91	0.498753
1727.83	0.498856
1737.8	0.498959
1747.83	0.499061
1757.92	0.499164
1768.07	0.499267
1778.28	0.499369
1788.55	0.499472
1798.87	0.499575
1809.26	0.499677
1819.7	0.49978
1830.21	0.499883
1840.77	0.499986
1851.4	0.500088
1862.09	0.500191
1872.84	0.500294
1883.65	0.500396
1894.52	0.500499
1905.46	0.500602
1916.46	0.500704
1927.52	0.500807
1938.65	0.50091
1949.84	0.501013
1961.1	0.501115
1972.42	0.501218
1983.81	0.501321
1995.26	0.501423
2006.78	0.501526
2018.37	0.501629
2030.02	0.501731
2041.74	0.501834
2053.53	0.501937
2065.38	0.50204
2077.3	0.502142
2089.3	0.502245
2101.36	0.502348
2113.49	0.50245
2125.69	0.502553
2137.96	0.502656
2150.3	0.502758
2162.72	0.502861
2175.2	0.502964
2187.76	0.503066
2200.39	0.503169
2213.09	0.503272
2225.87	0.503375
2238.72	0.503477
2251.65	0.50358
2264.64	0.503683
2277.72	0.503785
2290.87	0.503888
2304.09	0.503991
2317.39	0.504093
2330.77	0.504196
2344.23	0.504299
2357.76	0.504401
2371.37	0.504504
2385.06	0.504607
2398.83	0.50471
2412.68	0.504812
2426.61	0.504915
2440.62	0.505018
2454.71	0.50512
2468.88	0.505223
2483.13	0.505326
2497.47	0.505428
2511.89	0.505531
2526.39	0.505634
2540.97	0.505736
2555.64	0.505839
2570.4	0.505942
2585.23	0.506044
2600.16	0.506147
2615.17	0.50625
2630.27	0.506353
2645.45	0.506455
2660.73	0.506558
2676.09	0.506661
2691.53	0.506763
2707.07	0.506866
2722.7	0.506969
2738.42	0.507071
2754.23	0.507174
2770.13	0.507277
2786.12	0.507379
2802.21	0.507482
2818.38	0.507585
2834.65	0.507687
2851.02	0.50779
2867.48	0.507893
2884.03	0.507995
2900.68	0.508098
2917.43	0.508201
2934.27	0.508304
2951.21	0.508406
2968.25	0.508509
2985.38	0.508612
3002.62	0.508714
3019.95	0.508817
3037.39	0.50892
3054.92	0.509022
3072.56	0.509125
3090.3	0.509228
3108.14	0.50933
3126.08	0.509433
3144.13	0.509536
3162.28	0.509638
3180.53	0.509741
3198.9	0.509844
3217.36	0.509946
3235.94	0.510049
3254.62	0.510152
3273.41	0.510254
3292.3	0.510357
3311.31	0.51046
3330.43	0.510562
3349.65	0.510665
3368.99	0.510768
3388.44	0.510871
3408	0.510973
3427.68	0.511076
3447.47	0.511179
3467.37	0.511281
3487.39	0.511384
3507.52	0.511487
3527.77	0.511589
3548.13	0.511692
3568.62	0.511795
3589.22	0.511897
3609.94	0.512
3630.78	0.512103
3651.74	0.512205
3672.82	0.512308
3694.03	0.512411
3715.35	0.512513
3736.8	0.512616
3758.37	0.512719
3780.07	0.512821
3801.89	0.512924
3823.84	0.513027
3845.92	0.513129
3868.12	0.513232
3890.45	0.513335
3912.91	0.513437
3935.5	0.51354
3958.22	0.513643
3981.07	0.513745
4004.05	0.513848
4027.17	0.513951
4050.42	0.514054
4073.8	0.514156
4097.32	0.514259
4120.98	0.514362
4144.77	0.514464
4168.69	0.514567
4192.76	0.51467
4216.97	0.514772
4241.31	0.514875
4265.8	0.514978
4290.42	0.51508
4315.19	0.515183
4340.1	0.515286
4365.16	0.515388
4390.36	0.515491
4415.7	0.515594
4441.2	0.515696
4466.84	0.515799
4492.62	0.515902
4518.56	0.516004
4544.65	0.516107
4570.88	0.51621
4597.27	0.516312
4623.81	0.516415
4650.5	0.516518
4677.35	0.51662
4704.35	0.516723
4731.51	0.516826
4758.83	0.516928
4786.3	0.517031
4813.93	0.517134
4841.72	0.517236
4869.68	0.517339
4897.79	0.517442
4926.06	0.517544
4954.5	0.517647
4983.1	0.51775
5011.87	0.517852
5040.81	0.517955
5069.91	0.518058
5099.18	0.51816
5128.61	0.518263
5158.22	0.518366
5188	0.518468
5217.95	0.518571
5248.07	0.518674
5278.37	0.518776
5308.84	0.518879
5339.49	0.518982
5370.32	0.519084
5401.32	0.519187
5432.5	0.51929
5463.87	0.519392
5495.41	0.519495
5527.13	0.519598
5559.04	0.5197
5591.14	0.519803
5623.41	0.519906
5655.88	0.520008
5688.53	0.520111
5721.37	0.520214
5754.4	0.520316
5787.62	0.520419
5821.03	0.520522
5854.64	0.520624
5888.44	0.520727
5922.43	0.52083
5956.62	0.520932
5991.01	0.521035
6025.6	0.521138
6060.38	0.52124
6095.37	0.521343
6130.56	0.521446
6165.95	0.521548
6201.55	0.521651
6237.35	0.521754
6273.36	0.521856
6309.57	0.521959
6346	0.522062
6382.63	0.522164
6419.48	0.522267
6456.54	0.52237
6493.82	0.522472
6531.31	0.522575
6569.01	0.522678
6606.93	0.52278
6645.08	0.522883
6683.44	0.522986
6722.02	0.523088
6760.83	0.523191
6799.86	0.523294
6839.12	0.523396
6878.6	0.523499
6918.31	0.523602
6958.25	0.523704
6998.42	0.523807
7038.82	0.52391
7079.46	0.524012
7120.33	0.524115
7161.43	0.524218
7202.78	0.52432
7244.36	0.524423
7286.18	0.524526
7328.25	0.524628
7370.55	0.524731
7413.1	0.524834
7455.9	0.524936
7498.94	0.525039
7542.23	0.525142
7585.78	0.525244
7629.57	0.525347
7673.61	0.52545
7717.92	0.525552
7762.47	0.525655
7807.28	0.525758
7852.36	0.52586
7897.69	0.525963
7943.28	0.526066
7989.14	0.526168
8035.26	0.526271
8081.65	0.526374
8128.31	0.526476
8175.23	0.526579
8222.43	0.526682
8269.9	0.526784
8317.64	0.526887
8365.66	0.52699
8413.95	0.527092
8462.53	0.527195
8511.38	0.527298
8560.52	0.5274
8609.94	0.527503
8659.64	0.527606
8709.64	0.527708
8759.92	0.527811
8810.49	0.527914
8861.35	0.528016
8912.51	0.528119
8963.96	0.528222
9015.71	0.528324
9067.76	0.528427
9120.11	0.52853
9172.76	0.528632
9225.71	0.528735
9278.97	0.528838
9332.54	0.52894
9386.42	0.529043
9440.61	0.529146
9495.11	0.529248
9549.93	0.529351
9605.06	0.529454
9660.51	0.529556
9716.28	0.529659
9772.37	0.529762
9828.79	0.529864
9885.53	0.529967
9942.6	0.53007
10000	0.530172
10057.7	0.530275
10115.8	0.530378
10174.2	0.53048
10232.9	0.530583
10292	0.530686
10351.4	0.530788
10411.2	0.530891
10471.3	0.530994
10531.7	0.531096
10592.5	0.531199
10653.7	0.531302
10715.2	0.531404
10777.1	0.531507
10839.3	0.53161
10901.8	0.531712
10964.8	0.531815
11028.1	0.531918
11091.7	0.53202
11155.8	0.532123
11220.2	0.532226
11285	0.532328
11350.1	0.532431
11415.6	0.532534
11481.5	0.532636
11547.8	0.532739
11614.5	0.532842
11681.5	0.532944
11749	0.533047
11816.8	0.533149
11885	0.533252
11953.6	0.533355
12022.6	0.533457
12092.1	0.53356
12161.9	0.533663
12232.1	0.533765
12302.7	0.533868
12373.7	0.533971
12445.1	0.534073
12517	0.534176
12589.3	0.534279
12661.9	0.534381
12735	0.534484
12808.6	0.534587
12882.5	0.534689
12956.9	0.534792
13031.7	0.534895
13106.9	0.534997
13182.6	0.5351
13258.7	0.535203
13335.2	0.535305
13412.2	0.535408
13489.6	0.535511
13567.5	0.535613
13645.8	0.535716
13724.6	0.535819
13803.8	0.535921
13883.5	0.536024
13963.7	0.536127
14044.3	0.536229
14125.4	0.536332
14206.9	0.536435
14288.9	0.536537
14371.4	0.53664
14454.4	0.536743
14537.8	0.536845
14621.8	0.536948
14706.2	0.537051
14791.1	0.537153
14876.5	0.537256
14962.4	0.537359
15048.7	0.537461
15135.6	0.537564
15223	0.537667
15310.9	0.537769
15399.3	0.537872
15488.2	0.537974
15577.6	0.538077
15667.5	0.53818
15758	0.538282
15848.9	0.538385
15940.4	0.538488
16032.5	0.53859
16125	0.538693
16218.1	0.538796
16311.7	0.538898
16405.9	0.539001
16500.6	0.539104
16595.9	0.539206
16691.7	0.539309
16788	0.539412
16885	0.539514
16982.4	0.539617
17080.5	0.53972
17179.1	0.539822
17278.3	0.539925
17378	0.540028
17478.3	0.54013
17579.2	0.540233
17680.7	0.540336
17782.8	0.540438
17885.5	0.540541
17988.7	0.540644
18092.6	0.540746
18197	0.540849
18302.1	0.540952
18407.7	0.541054
18514	0.541157
18620.9	0.54126
18728.4	0.541362
18836.5	0.541465
18945.2	0.541568
19054.6	0.54167
19164.6	0.541773
19275.2	0.541876
19386.5	0.541978
19498.4	0.542081
19611	0.542183
19724.2	0.542286
19838.1	0.542389
19952.6	0.542491
20067.8	0.542594
20183.7	0.542697
20300.2	0.542799
20417.4	0.542902
20535.3	0.543005
20653.8	0.543107
20773	0.54321
20893	0.543313
21013.6	0.543415
21134.9	0.543518
21256.9	0.543621
21379.6	0.543723
21503	0.543826
21627.2	0.543929
21752	0.544031
21877.6	0.544134
22003.9	0.544237
22130.9	0.544339
22258.7	0.544442
22387.2	0.544545
22516.5	0.544647
22646.4	0.54475
22777.2	0.544853
22908.7	0.544955
23040.9	0.545058
23173.9	0.545161
23307.7	0.545263
23442.3	0.545366
23577.6	0.545469
23713.7	0.545571
23850.6	0.545674
23988.3	0.545777
24126.8	0.545879
24266.1	0.545982
24406.2	0.546084
24547.1	0.546187
24688.8	0.54629
24831.3	0.546392
24974.7	0.546495
25118.9	0.546598
25263.9	0.5467
25409.7	0.546803
25556.4	0.546906
25704	0.547008
25852.3	0.547111
26001.6	0.547214
26151.7	0.547316
26302.7	0.547419
26454.5	0.547522
26607.3	0.547624
26760.9	0.547727
26915.3	0.54783
27070.7	0.547932
27227	0.548035
27384.2	0.548138
27542.3	0.54824
27701.3	0.548343
27861.2	0.548446
28022.1	0.548548
28183.8	0.548651
28346.5	0.548754
28510.2	0.548856
28674.8	0.548959
28840.3	0.549062
29006.8	0.549164
29174.3	0.549267
29342.7	0.549369
29512.1	0.549472
29682.5	0.549575
29853.8	0.549677
30026.2	0.54978
30199.5	0.549883
30373.9	0.549985
30549.2	0.550088
30725.6	0.550191
30903	0.550293
31081.4	0.550396
31260.8	0.550499
31441.3	0.550601
31622.8	0.550704
31805.3	0.550807
31989	0.550909
32173.6	0.551012
32359.4	0.551115
32546.2	0.551217
32734.1	0.55132
32923	0.551423
33113.1	0.551525
33304.3	0.551628
33496.5	0.551731
33689.9	0.551833
33884.4	0.551936
34080	0.552039
34276.8	0.552141
34474.7	0.552244
34673.7	0.552347
34873.9	0.552449
35075.2	0.552552
35277.7	0.552654
35481.3	0.552757
35686.2	0.55286
35892.2	0.552962
36099.4	0.553065
36307.8	0.553168
36517.4	0.55327
36728.2	0.553373
36940.3	0.553476
37153.5	0.553578
37368	0.553681
37583.7	0.553784
37800.7	0.553886
38018.9	0.553989
38238.4	0.554092
38459.2	0.554194
38681.2	0.554297
38904.5	0.5544
39129.1	0.554502
39355	0.554605
39582.2	0.554708
39810.7	0.55481
40040.5	0.554913
40271.7	0.555016
40504.2	0.555118
40738	0.555221
40973.2	0.555324
41209.8	0.555426
41447.7	0.555529
41686.9	0.555632
41927.6	0.555734
42169.7	0.555837
42413.1	0.555939
42658	0.556042
42904.2	0.556145
43151.9	0.556247
43401	0.55635
43651.6	0.556453
43903.6	0.556555
44157	0.556658
44412	0.556761
44668.4	0.556863
44926.2	0.556966
45185.6	0.557069
45446.5	0.557171
45708.8	0.557274
45972.7	0.557377
46238.1	0.557479
46505	0.557582
46773.5	0.557685
47043.5	0.557787
47315.1	0.55789
47588.3	0.557993
47863	0.558095
48139.3	0.558198
48417.2	0.558301
48696.8	0.558403
48977.9	0.558506
49260.6	0.558609
49545	0.558711
49831	0.558814
50118.7	0.558916
50408.1	0.559019
50699.1	0.559122
50991.8	0.559224
51286.1	0.559327
51582.2	0.55943
51880	0.559532
52179.5	0.559635
52480.7	0.559738
52783.7	0.55984
53088.4	0.559943
53394.9	0.560046
53703.2	0.560148
54013.2	0.560251
54325	0.560354
54638.7	0.560456
54954.1	0.560559
55271.3	0.560662
55590.4	0.560764
55911.4	0.560867
56234.1	0.56097
56558.8	0.561072
56885.3	0.561175
57213.7	0.561278
57544	0.56138
57876.2	0.561483
58210.3	0.561586
58546.4	0.561688
58884.4	0.561791
59224.3	0.561893
59566.2	0.561996
59910.1	0.562099
60256	0.562201
60603.8	0.562304
60953.7	0.562407
61305.6	0.562509
61659.5	0.562612
62015.5	0.562715
62373.5	0.562817
62733.6	0.56292
63095.7	0.563023
63460	0.563125
63826.3	0.563228
64194.8	0.563331
64565.4	0.563433
64938.2	0.563536
65313.1	0.563639
65690.1	0.563741
66069.3	0.563844
66450.8	0.563947
66834.4	0.564049
67220.2	0.564152
67608.3	0.564255
67998.6	0.564357
68391.2	0.56446
68786	0.564563
69183.1	0.564665
69582.5	0.564768
69984.2	0.56487
70388.2	0.564973
70794.6	0.565076
71203.3	0.565178
71614.3	0.565281
72027.8	0.565384
72443.6	0.565486
72861.8	0.565589
73282.5	0.565692
73705.5	0.565794
74131	0.565897
74559	0.566
74989.4	0.566102
75422.3	0.566205
75857.8	0.566308
76295.7	0.56641
76736.1	0.566513
77179.2	0.566616
77624.7	0.566718
78072.8	0.566821
78523.6	0.566924
78976.9	0.567026
79432.8	0.567129
79891.4	0.567232
80352.6	0.567334
80816.5	0.567437
81283.1	0.56754
81752.3	0.567642
82224.3	0.567745
82699	0.567847
83176.4	0.56795
83656.6	0.568053
84139.5	0.568155
84625.3	0.568258
85113.8	0.568361
85605.2	0.568463
86099.4	0.568566
86596.4	0.568669
87096.4	0.568771
87599.2	0.568874
88104.9	0.568977
88613.5	0.569079
89125.1	0.569182
89639.6	0.569285
90157.1	0.569387
90677.6	0.56949
91201.1	0.569593
91727.6	0.569695
92257.1	0.569798
92789.7	0.569901
93325.4	0.570003
93864.2	0.570106
94406.1	0.570209
94951.1	0.570311
95499.3	0.570414
96050.6	0.570516
96605.1	0.570619
97162.8	0.570722
97723.7	0.570824
98287.9	0.570927
98855.3	0.57103
99426	0.571132
100000	0.571235
100577	0.571338
101158	0.57144
101742	0.571543
102329	0.571646
102920	0.571748
103514	0.571851
104112	0.571954
104713	0.572056
105317	0.572159
105925	0.572262
106537	0.572364
107152	0.572467
107771	0.57257
108393	0.572672
109018	0.572775
109648	0.572878
110281	0.57298
110917	0.573083
111558	0.573185
112202	0.573288
112850	0.573391
113501	0.573493
114156	0.573596
114815	0.573699
115478	0.573801
116145	0.573904
116815	0.574007
117490	0.574109
118168	0.574212
118850	0.574315
119536	0.574417
120226	0.57452
120921	0.574623
121619	0.574725
122321	0.574828
123027	0.574931
123737	0.575033
124451	0.575136
125170	0.575239
125893	0.575341
126619	0.575444
127350	0.575547
128086	0.575649
128825	0.575752
129569	0.575855
130317	0.575957
131069	0.57606
131826	0.576162
132587	0.576265
133352	0.576368
134122	0.57647
134896	0.576573
135675	0.576676
136458	0.576778
137246	0.576881
138038	0.576984
138835	0.577086
139637	0.577189
140443	0.577292
141254	0.577394
142069	0.577497
142889	0.5776
143714	0.577702
144544	0.577805
145378	0.577908
146218	0.57801
147062	0.578113
147911	0.578216
148765	0.578318
149624	0.578421
150487	0.578524
151356	0.578626
152230	0.578729
153109	0.578831
153993	0.578934
154882	0.579037
155776	0.579139
156675	0.579242
157580	0.579345
158489	0.579447
159404	0.57955
160325	0.579653
161250	0.579755
162181	0.579858
163117	0.579961
164059	0.580063
165006	0.580166
165959	0.580269
166917	0.580371
167880	0.580474
168850	0.580577
169824	0.580679
170805	0.580782
171791	0.580885
172783	0.580987
173780	0.58109
174783	0.581193
175792	0.581295
176807	0.581398
177828	0.5815
178855	0.581603
179887	0.581706
180926	0.581808
181970	0.581911
183021	0.582014
184077	0.582116
185140	0.582219
186209	0.582322
187284	0.582424
188365	0.582527
189452	0.58263
190546	0.582732
191646	0.582835
192752	0.582938
193865	0.58304
194984	0.583143
196110	0.583246
197242	0.583348
198381	0.583451
199526	0.583554
200678	0.583656
201837	0.583759
203002	0.583862
204174	0.583964
205353	0.584067
206538	0.584169
207730	0.584272
208930	0.584375
210136	0.584477
211349	0.58458
212569	0.584683
213796	0.584785
215030	0.584888
216272	0.584991
217520	0.585093
218776	0.585196
220039	0.585299
221309	0.585401
222587	0.585504
223872	0.585607
225165	0.585709
226464	0.585812
227772	0.585915
229087	0.586017
230409	0.58612
231739	0.586223
233077	0.586325
234423	0.586428
235776	0.586531
237137	0.586633
238506	0.586736
239883	0.586838
241268	0.586941
242661	0.587044
244062	0.587146
245471	0.587249
246888	0.587352
248313	0.587454
249747	0.587557
251189	0.58766
252639	0.587762
254097	0.587865
255564	0.587968
257040	0.58807
258523	0.588173
260016	0.588276
261517	0.588378
263027	0.588481
264545	0.588584
266073	0.588686
267609	0.588789
269153	0.588892
270707	0.588994
272270	0.589097
273842	0.5892
275423	0.589302
277013	0.589405
278612	0.589507
280221	0.58961
281838	0.589713
283465	0.589815
285102	0.589918
286748	0.590021
288403	0.590123
290068	0.590226
291743	0.590329
293427	0.590431
295121	0.590534
296825	0.590637
298538	0.590739
300262	0.590842
301995	0.590945
303739	0.591047
305492	0.59115
307256	0.591253
309030	0.591355
310814	0.591458
312608	0.591561
314413	0.591663
316228	0.591766
318053	0.591869
319890	0.591971
321736	0.592074
323594	0.592176
325462	0.592279
327341	0.592382
329230	0.592484
331131	0.592587
333043	0.59269
334965	0.592792
336899	0.592895
338844	0.592998
340800	0.5931
342768	0.593203
344747	0.593306
346737	0.593408
348739	0.593511
350752	0.593614
352777	0.593716
354813	0.593819
356862	0.593922
358922	0.594024
360994	0.594127
363078	0.59423
365174	0.594332
367282	0.594435
369403	0.594538
371535	0.59464
373680	0.594743
375837	0.594845
378007	0.594948
380189	0.595051
382384	0.595153
384592	0.595256
386812	0.595359
389045	0.595461
391291	0.595564
393550	0.595667
395822	0.595769
398107	0.595872
400405	0.595975
402717	0.596077
405042	0.59618
407380	0.596283
409732	0.596385
412098	0.596488
414477	0.596591
416869	0.596693
419276	0.596796
421697	0.596899
424131	0.597001
426580	0.597104
429042	0.597207
431519	0.597309
434010	0.597412
436516	0.597514
439036	0.597617
441570	0.59772
444120	0.597822
446684	0.597925
449262	0.598028
451856	0.59813
454465	0.598233
457088	0.598336
459727	0.598438
462381	0.598541
465050	0.598644
467735	0.598746
470435	0.598849
473151	0.598952
475883	0.599054
478630	0.599157
481393	0.59926
484172	0.599362
486968	0.599465
489779	0.599568
492606	0.59967
495450	0.599773
498310	0.599876
501187	0.599978
504081	0.600081
506991	0.600183
509918	0.600286
512861	0.600389
515822	0.600491
518800	0.600594
521795	0.600697
524807	0.600799
527837	0.600902
530884	0.601005
533949	0.601107
537032	0.60121
540132	0.601313
543250	0.601415
546387	0.601518
549541	0.601621
552713	0.601723
555904	0.601826
559114	0.601929
562341	0.602031
565588	0.602134
568853	0.602237
572137	0.602339
575440	0.602442
578762	0.602545
582103	0.602647
585464	0.60275
588844	0.602852
592243	0.602955
595662	0.603058
599101	0.60316
602560	0.603263
606038	0.603366
609537	0.603468
613056	0.603571
616595	0.603674
620155	0.603776
623735	0.603879
627336	0.603982
630957	0.604084
634600	0.604187
638263	0.60429
641948	0.604392
645654	0.604495
649382	0.604598
653131	0.6047
656901	0.604803
660693	0.604906
664508	0.605008
668344	0.605111
672202	0.605214
676083	0.605316
679986	0.605419
683912	0.605521
687860	0.605624
691831	0.605727
695825	0.605829
699842	0.605932
703882	0.606035
707946	0.606137
712033	0.60624
716143	0.606343
720278	0.606445
724436	0.606548
728618	0.606651
732825	0.606753
737055	0.606856
741310	0.606959
745590	0.607061
749894	0.607164
754223	0.607267
758578	0.607369
762957	0.607472
767361	0.607575
771792	0.607677
776247	0.60778
780728	0.607883
785236	0.607985
789769	0.608088
794328	0.60819
798914	0.608293
803526	0.608396
808165	0.608498
812831	0.608601
817523	0.608704
822243	0.608806
826990	0.608909
831764	0.609012
836566	0.609114
841395	0.609217
846253	0.60932
851138	0.609422
856052	0.609525
860994	0.609628
865964	0.60973
870964	0.609833
875992	0.609936
881049	0.610038
886135	0.610141
891251	0.610244
896396	0.610346
901571	0.610449
906776	0.610552
912011	0.610654
917276	0.610757
922571	0.610859
927897	0.610962
933254	0.611065
938642	0.611167
944061	0.61127
949511	0.611373
954993	0.611475
960506	0.611578
966051	0.611681
971628	0.611783
977237	0.611886
982879	0.611989
988553	0.612091
994260	0.612194
1e+06	0.612297
1.00577e+06	0.612399
1.01158e+06	0.612502
1.01742e+06	0.612605
1.02329e+06	0.612707
1.0292e+06	0.61281
1.03514e+06	0.612913
1.04112e+06	0.613015
1.04713e+06	0.613118
1.05317e+06	0.613221
1.05925e+06	0.613323
1.06537e+06	0.613426
1.07152e+06	0.613528
1.07771e+06	0.613631
1.08393e+06	0.613734
1.09018e+06	0.613836
1.09648e+06	0.613939
1.10281e+06	0.614042
1.10917e+06	0.614144
1.11558e+06	0.614247
1.12202e+06	0.61435
1.1285e+06	0.614452
1.13501e+06	0.614555
1.14156e+06	0.614658
1.14815e+06	0.61476
1.15478e+06	0.614863
1.16145e+06	0.614966
1.16815e+06	0.615068
1.1749e+06	0.615171
1.18168e+06	0.615274
1.1885e+06	0.615376
1.19536e+06	0.615479
1.20226e+06	0.615582
1.20921e+06	0.615684
1.21619e+06	0.615787
1.22321e+06	0.61589
1.23027e+06	0.615992
1.23737e+06	0.616095
1.24451e+06	0.616197
1.2517e+06	0.6163
1.25893e+06	0.616403
1.26619e+06	0.616505
1.2735e+06	0.616608
1.28086e+06	0.616711
1.28825e+06	0.616813
1.29569e+06	0.616916
1.30317e+06	0.617019
1.31069e+06	0.617121
1.31826e+06	0.617224
1.32587e+06	0.617327
1.33352e+06	0.617429
1.34122e+06	0.617532
1.34896e+06	0.617635
1.35675e+06	0.617737
1.36458e+06	0.61784
1.37246e+06	0.617943
1.38038e+06	0.618045
1.38835e+06	0.618148
1.39637e+06	0.618251
1.40443e+06	0.618353
1.41254e+06	0.618456
1.42069e+06	0.618558
1.42889e+06	0.618661
1.43714e+06	0.618764
1.44544e+06	0.618866
1.45378e+06	0.618969
1.46218e+06	0.619072
1.47062e+06	0.619174
1.47911e+06	0.619277
1.48765e+06	0.61938
1.49624e+06	0.619482
1.50487e+06	0.619585
1.51356e+06	0.619688
1.5223e+06	0.61979
1.53109e+06	0.619893
1.53993e+06	0.619996
1.54882e+06	0.620098
1.55776e+06	0.620201
1.56675e+06	0.620304
1.5758e+06	0.620406
1.58489e+06	0.620509
1.59404e+06	0.620612
1.60325e+06	0.620714
1.6125e+06	0.620817
1.62181e+06	0.62092
1.63117e+06	0.621022
1.64059e+06	0.621125
1.65006e+06	0.621227
1.65959e+06	0.62133
1.66917e+06	0.621433
1.6788e+06	0.621535
1.6885e+06	0.621638
1.69824e+06	0.621741
1.70805e+06	0.621843
1.71791e+06	0.621946
1.72783e+06	0.622049
1.7378e+06	0.622151
1.74783e+06	0.622254
1.75792e+06	0.622357
1.76807e+06	0.622459
1.77828e+06	0.622562
1.78855e+06	0.622665
1.79887e+06	0.622767
1.80926e+06	0.62287
1.8197e+06	0.622973
1.83021e+06	0.623075
1.84077e+06	0.623178
1.8514e+06	0.623281
1.86209e+06	0.623383
1.87284e+06	0.623486
1.88365e+06	0.623589
1.89452e+06	0.623691
1.90546e+06	0.623794
1.91646e+06	0.623896
1.92752e+06	0.623999
1.93865e+06	0.624102
1.94984e+06	0.624204
1.9611e+06	0.624307
1.97242e+06	0.62441
1.98381e+06	0.624512
1.99526e+06	0.624615
2.00678e+06	0.624718
2.01837e+06	0.62482
2.03002e+06	0.624923
2.04174e+06	0.625026
2.05353e+06	0.625128
2.06538e+06	0.625231
2.0773e+06	0.625334
2.0893e+06	0.625436
2.10136e+06	0.625539
2.11349e+06	0.625642
2.12569e+06	0.625744
2.13796e+06	0.625847
2.1503e+06	0.62595
2.16272e+06	0.626052
2.1752e+06	0.626155
2.18776e+06	0.626258
2.20039e+06	0.62636
2.21309e+06	0.626463
2.22587e+06	0.626565
2.23872e+06	0.626668
2.25165e+06	0.626771
2.26464e+06	0.626873
2.27772e+06	0.626976
2.29087e+06	0.627079
2.30409e+06	0.627181
2.31739e+06	0.627284
2.33077e+06	0.627387
2.34423e+06	0.627489
2.35776e+06	0.627592
2.37137e+06	0.627695
2.38506e+06	0.627797
2.39883e+06	0.6279
2.41268e+06	0.628003
2.42661e+06	0.628105
2.44062e+06	0.628208
2.45471e+06	0.628311
2.46888e+06	0.628413
2.48313e+06	0.628516
2.49747e+06	0.628619
2.51189e+06	0.628721
2.52639e+06	0.628824
2.54097e+06	0.628927
2.55564e+06	0.629029
2.5704e+06	0.629132
2.58523e+06	0.629234
2.60016e+06	0.629337
2.61517e+06	0.62944
2.63027e+06	0.629542
2.64545e+06	0.629645
2.66073e+06	0.629748
2.67609e+06	0.62985
2.69153e+06	0.629953
2.70707e+06	0.630056
2.7227e+06	0.630158
2.73842e+06	0.630261
2.75423e+06	0.630364
2.77013e+06	0.630466
2.78612e+06	0.630569
2.80221e+06	0.630672
2.81838e+06	0.630774
2.83465e+06	0.630877
2.85102e+06	0.63098
2.86748e+06	0.631082
2.88403e+06	0.631185
2.90068e+06	0.631288
2.91743e+06	0.63139
2.93427e+06	0.631493
2.95121e+06	0.631596
2.96825e+06	0.631698
2.98538e+06	0.631801
3.00262e+06	0.631903
3.01995e+06	0.632006
3.03739e+06	0.632109
3.05492e+06	0.632211
3.07256e+06	0.632314
3.0903e+06	0.632417
3.10814e+06	0.632519
3.12608e+06	0.632622
3.14413e+06	0.632725
3.16228e+06	0.632827
3.18053e+06	0.63293
3.1989e+06	0.633033
3.21736e+06	0.633135
3.23594e+06	0.633238
3.25462e+06	0.633341
3.27341e+06	0.633443
3.2923e+06	0.633546
3.31131e+06	0.633649
3.33043e+06	0.633751
3.34965e+06	0.633854
3.36899e+06	0.633957
3.38844e+06	0.634059
3.408e+06	0.634162
3.42768e+06	0.634264
3.44747e+06	0.634367
3.46737e+06	0.63447
3.48739e+06	0.634572
3.50752e+06	0.634675
3.52777e+06	0.634778
3.54813e+06	0.63488
3.56862e+06	0.634983
3.58922e+06	0.635086
3.60994e+06	0.635188
3.63078e+06	0.635291
3.65174e+06	0.635394
3.67282e+06	0.635496
3.69403e+06	0.635599
3.71535e+06	0.635702
3.7368e+06	0.635804
3.75837e+06	0.635907
3.78007e+06	0.63601
3.80189e+06	0.636112
3.82384e+06	0.636215
3.84592e+06	0.636318
3.86812e+06	0.63642
3.89045e+06	0.636523
3.91291e+06	0.636626
3.9355e+06	0.636728
3.95822e+06	0.636831
3.98107e+06	0.636933
4.00405e+06	0.637036
4.02717e+06	0.637139
4.05042e+06	0.637241
4.0738e+06	0.637344
4.09732e+06	0.637447
4.12098e+06	0.637549
4.14477e+06	0.637652
4.16869e+06	0.637755
4.19276e+06	0.637857
4.21697e+06	0.63796
4.24131e+06	0.638063
4.2658e+06	0.638165
4.29042e+06	0.638268
4.31519e+06	0.638371
4.3401e+06	0.638473
4.36516e+06	0.638576
4.39036e+06	0.638679
4.4157e+06	0.638781
4.4412e+06	0.638884
4.46684e+06	0.638987
4.49262e+06	0.639089
4.51856e+06	0.639192
4.54465e+06	0.639295
4.57088e+06	0.639397
4.59727e+06	0.6395
4.62381e+06	0.639602
4.6505e+06	0.639705
4.67735e+06	0.639808
4.70435e+06	0.63991
4.73151e+06	0.640013
4.75883e+06	0.640116
4.7863e+06	0.640218
4.81393e+06	0.640321
4.84172e+06	0.640424
4.86968e+06	0.640526
4.89779e+06	0.640629
4.92606e+06	0.640732
4.9545e+06	0.640834
4.9831e+06	0.640937
5.01187e+06	0.64104
5.04081e+06	0.641142
5.06991e+06	0.641245
5.09918e+06	0.641348
5.12861e+06	0.64145
5.15822e+06	0.641553
5.188e+06	0.641656
5.21795e+06	0.641758
5.24807e+06	0.641861
5.27837e+06	0.641964
5.30884e+06	0.642066
5.33949e+06	0.642169
5.37032e+06	0.642271
5.40132e+06	0.642374
5.4325e+06	0.642477
5.46387e+06	0.642579
5.49541e+06	0.642682
5.52713e+06	0.642785
5.55904e+06	0.642887
5.59114e+06	0.64299
5.62341e+06	0.643093
5.65588e+06	0.643195
5.68853e+06	0.643298
5.72137e+06	0.643401
5.7544e+06	0.643503
5.78762e+06	0.643606
5.82103e+06	0.643709
5.85464e+06	0.643811
5.88844e+06	0.643914
5.92243e+06	0.644017
5.95662e+06	0.644119
5.99101e+06	0.644222
6.0256e+06	0.644325
6.06038e+06	0.644427
6.09537e+06	0.64453
6.13056e+06	0.644633
6.16595e+06	0.644735
6.20155e+06	0.644838
6.23735e+06	0.64494
6.27336e+06	0.645043
6.30957e+06	0.645146
6.346e+06	0.645248
6.38263e+06	0.645351
6.41948e+06	0.645454
6.45654e+06	0.645556
6.49382e+06	0.645659
6.53131e+06	0.645762
6.56901e+06	0.645864
6.60693e+06	0.645967
6.64508e+06	0.64607
6.68344e+06	0.646172
6.72202e+06	0.646275
6.76083e+06	0.646378
6.79986e+06	0.64648
6.83912e+06	0.646583
6.8786e+06	0.646686
6.91831e+06	0.646788
6.95825e+06	0.646891
6.99842e+06	0.646994
7.03882e+06	0.647096
7.07946e+06	0.647199
7.12033e+06	0.647302
7.16143e+06	0.647404
7.20278e+06	0.647507
7.24436e+06	0.647609
7.28618e+06	0.647712
7.32825e+06	0.647815
7.37055e+06	0.647917
7.4131e+06	0.64802
7.4559e+06	0.648123
7.49894e+06	0.648225
7.54223e+06	0.648328
7.58578e+06	0.648431
7.62957e+06	0.648533
7.67361e+06	0.648636
7.71792e+06	0.648739
7.76247e+06	0.648841
7.80728e+06	0.648944
7.85236e+06	0.649047
7.89769e+06	0.649149
7.94328e+06	0.649252
7.98914e+06	0.649355
8.03526e+06	0.649457
8.08165e+06	0.64956
8.12831e+06	0.649663
8.17523e+06	0.649765
8.22243e+06	0.649868
8.2699e+06	0.64997
8.31764e+06	0.650073
8.36566e+06	0.650176
8.41395e+06	0.650278
8.46253e+06	0.650381
8.51138e+06	0.650484
8.56052e+06	0.650586
8.60994e+06	0.650689
8.65964e+06	0.650792
8.70964e+06	0.650894
8.75992e+06	0.650997
8.81049e+06	0.6511
8.86135e+06	0.651202
8.91251e+06	0.651305
8.96396e+06	0.651408
9.01571e+06	0.65151
9.06776e+06	0.651613
9.12011e+06	0.651716
9.17276e+06	0.651818
9.22571e+06	0.651921
9.27897e+06	0.652024
9.33254e+06	0.652126
9.38642e+06	0.652229
9.44061e+06	0.652332
9.49511e+06	0.652434
9.54993e+06	0.652537
9.60506e+06	0.652639
9.66051e+06	0.652742
9.71628e+06	0.652845
9.77237e+06	0.652947
9.82879e+06	0.65305
9.88553e+06	0.653153
9.9426e+06	0.653255
1e+07	0.653358
