Stopping power dEdx from Ionisation for e- Z = 0 in Water, process name: eIoni
E [MeV]	dEdx [MeV/mm]
0.001	11.9776
0.00100577	11.9341
0.00101158	11.8906
0.00101742	11.8472
0.00102329	11.8039
0.0010292	11.7608
0.00103514	11.7177
0.00104112	11.6748
0.00104713	11.632
0.00105317	11.5893
0.00105925	11.5466
0.00106537	11.5041
0.00107152	11.4617
0.00107771	11.4195
0.00108393	11.3773
0.00109018	11.3352
0.00109648	11.2933
0.00110281	11.2514
0.00110917	11.2097
0.00111558	11.1681
0.00112202	11.1265
0.0011285	11.0851
0.00113501	11.0439
0.00114156	11.0027
0.00114815	10.9616
0.00115478	10.9206
0.00116145	10.8798
0.00116815	10.839
0.0011749	10.7984
0.00118168	10.7579
0.0011885	10.7175
0.00119536	10.6772
0.00120226	10.637
0.00120921	10.597
0.00121619	10.557
0.00122321	10.5171
0.00123027	10.4774
0.00123737	10.4378
0.00124451	10.3983
0.0012517	10.3589
0.00125893	10.3196
0.00126619	10.2804
0.0012735	10.2413
0.00128086	10.2024
0.00128825	10.1635
0.00129569	10.1248
0.00130317	10.0862
0.00131069	10.0477
0.00131826	10.0093
0.00132587	9.97099
0.00133352	9.93281
0.00134122	9.89475
0.00134896	9.8568
0.00135675	9.81896
0.00136458	9.78123
0.00137246	9.74362
0.00138038	9.70611
0.00138835	9.66872
0.00139637	9.63144
0.00140443	9.59427
0.00141254	9.55721
0.00142069	9.52026
0.00142889	9.48343
0.00143714	9.4467
0.00144544	9.41009
0.00145378	9.37358
0.00146218	9.33719
0.00147062	9.30091
0.00147911	9.26474
0.00148765	9.22868
0.00149624	9.19273
0.00150487	9.15689
0.00151356	9.12117
0.0015223	9.08555
0.00153109	9.05004
0.00153993	9.01464
0.00154882	8.97936
0.00155776	8.94418
0.00156675	8.90912
0.0015758	8.87416
0.00158489	8.83931
0.00159404	8.80457
0.00160325	8.76995
0.0016125	8.73543
0.00162181	8.70102
0.00163117	8.66672
0.00164059	8.63253
0.00165006	8.59845
0.00165959	8.56447
0.00166917	8.53061
0.0016788	8.49685
0.0016885	8.46321
0.00169824	8.42967
0.00170805	8.39624
0.00171791	8.36291
0.00172783	8.3297
0.0017378	8.29659
0.00174783	8.26359
0.00175792	8.2307
0.00176807	8.19792
0.00177828	8.16524
0.00178855	8.13267
0.00179887	8.10021
0.00180926	8.06785
0.0018197	8.0356
0.00183021	8.00346
0.00184077	7.97142
0.0018514	7.93949
0.00186209	7.90767
0.00187284	7.87595
0.00188365	7.84433
0.00189452	7.81283
0.00190546	7.78142
0.00191646	7.75013
0.00192752	7.71893
0.00193865	7.68785
0.00194984	7.65686
0.0019611	7.62598
0.00197242	7.59521
0.00198381	7.56454
0.00199526	7.53397
0.00200678	7.50351
0.00201837	7.47315
0.00203002	7.4429
0.00204174	7.41274
0.00205353	7.3827
0.00206538	7.35275
0.0020773	7.32291
0.0020893	7.29316
0.00210136	7.26353
0.00211349	7.23399
0.00212569	7.20455
0.00213796	7.17522
0.0021503	7.14599
0.00216272	7.11686
0.0021752	7.08783
0.00218776	7.0589
0.00220039	7.03007
0.00221309	7.00134
0.00222587	6.97272
0.00223872	6.94419
0.00225165	6.91576
0.00226464	6.88744
0.00227772	6.85921
0.00229087	6.83108
0.00230409	6.80305
0.00231739	6.77512
0.00233077	6.74729
0.00234423	6.71955
0.00235776	6.69192
0.00237137	6.66438
0.00238506	6.63694
0.00239883	6.6096
0.00241268	6.58235
0.00242661	6.55521
0.00244062	6.52816
0.00245471	6.5012
0.00246888	6.47435
0.00248313	6.44758
0.00249747	6.42092
0.00251189	6.39435
0.00252639	6.36788
0.00254097	6.3415
0.00255564	6.31522
0.0025704	6.28903
0.00258523	6.26294
0.00260016	6.23694
0.00261517	6.21103
0.00263027	6.18522
0.00264545	6.15951
0.00266073	6.13389
0.00267609	6.10836
0.00269153	6.08292
0.00270707	6.05758
0.0027227	6.03233
0.00273842	6.00717
0.00275423	5.9821
0.00277013	5.95713
0.00278612	5.93225
0.00280221	5.90746
0.00281838	5.88276
0.00283465	5.85815
0.00285102	5.83364
0.00286748	5.80921
0.00288403	5.78488
0.00290068	5.76063
0.00291743	5.73648
0.00293427	5.71241
0.00295121	5.68843
0.00296825	5.66455
0.00298538	5.64075
0.00300262	5.61704
0.00301995	5.59342
0.00303739	5.56989
0.00305492	5.54645
0.00307256	5.52309
0.0030903	5.49982
0.00310814	5.47664
0.00312608	5.45355
0.00314413	5.43054
0.00316228	5.40762
0.00318053	5.38479
0.0031989	5.36204
0.00321736	5.33938
0.00323594	5.31681
0.00325462	5.29432
0.00327341	5.27191
0.0032923	5.24959
0.00331131	5.22736
0.00333043	5.20521
0.00334965	5.18314
0.00336899	5.16116
0.00338844	5.13926
0.003408	5.11745
0.00342768	5.09572
0.00344747	5.07407
0.00346737	5.05251
0.00348739	5.03103
0.00350752	5.00963
0.00352777	4.98831
0.00354813	4.96707
0.00356862	4.94592
0.00358922	4.92485
0.00360994	4.90386
0.00363078	4.88295
0.00365174	4.86212
0.00367282	4.84137
0.00369403	4.82071
0.00371535	4.80012
0.0037368	4.77961
0.00375837	4.75918
0.00378007	4.73883
0.00380189	4.71857
0.00382384	4.69837
0.00384592	4.67826
0.00386812	4.65823
0.00389045	4.63827
0.00391291	4.6184
0.0039355	4.5986
0.00395822	4.57888
0.00398107	4.55923
0.00400405	4.53966
0.00402717	4.52017
0.00405042	4.50076
0.0040738	4.48142
0.00409732	4.46216
0.00412098	4.44297
0.00414477	4.42386
0.00416869	4.40483
0.00419276	4.38587
0.00421697	4.36698
0.00424131	4.34817
0.0042658	4.32944
0.00429042	4.31078
0.00431519	4.29219
0.0043401	4.27368
0.00436516	4.25524
0.00439036	4.23687
0.0044157	4.21858
0.0044412	4.20036
0.00446684	4.18221
0.00449262	4.16413
0.00451856	4.14613
0.00454465	4.1282
0.00457088	4.11034
0.00459727	4.09255
0.00462381	4.07483
0.0046505	4.05719
0.00467735	4.03961
0.00470435	4.02211
0.00473151	4.00467
0.00475883	3.98731
0.0047863	3.97001
0.00481393	3.95279
0.00484172	3.93563
0.00486968	3.91854
0.00489779	3.90153
0.00492606	3.88458
0.0049545	3.8677
0.0049831	3.85089
0.00501187	3.83414
0.00504081	3.81747
0.00506991	3.80086
0.00509918	3.78432
0.00512861	3.76784
0.00515822	3.75144
0.005188	3.7351
0.00521795	3.71882
0.00524807	3.70262
0.00527837	3.68647
0.00530884	3.6704
0.00533949	3.65439
0.00537032	3.63844
0.00540132	3.62256
0.0054325	3.60675
0.00546387	3.591
0.00549541	3.57531
0.00552713	3.55969
0.00555904	3.54414
0.00559114	3.52864
0.00562341	3.51321
0.00565588	3.49785
0.00568853	3.48255
0.00572137	3.46731
0.0057544	3.45213
0.00578762	3.43701
0.00582103	3.42196
0.00585464	3.40697
0.00588844	3.39204
0.00592243	3.37718
0.00595662	3.36237
0.00599101	3.34763
0.0060256	3.33295
0.00606038	3.31832
0.00609537	3.30376
0.00613056	3.28926
0.00616595	3.27482
0.00620155	3.26044
0.00623735	3.24612
0.00627336	3.23186
0.00630957	3.21766
0.006346	3.20351
0.00638263	3.18943
0.00641948	3.1754
0.00645654	3.16144
0.00649382	3.14753
0.00653131	3.13368
0.00656901	3.11989
0.00660693	3.10615
0.00664508	3.09247
0.00668344	3.07885
0.00672202	3.06529
0.00676083	3.05179
0.00679986	3.03834
0.00683912	3.02494
0.0068786	3.01161
0.00691831	2.99833
0.00695825	2.9851
0.00699842	2.97193
0.00703882	2.95882
0.00707946	2.94576
0.00712033	2.93276
0.00716143	2.91981
0.00720278	2.90692
0.00724436	2.89408
0.00728618	2.88129
0.00732825	2.86856
0.00737055	2.85589
0.0074131	2.84326
0.0074559	2.83069
0.00749894	2.81818
0.00754223	2.80571
0.00758578	2.7933
0.00762957	2.78095
0.00767361	2.76864
0.00771792	2.75639
0.00776247	2.74419
0.00780728	2.73204
0.00785236	2.71994
0.00789769	2.7079
0.00794328	2.6959
0.00798914	2.68396
0.00803526	2.67207
0.00808165	2.66023
0.00812831	2.64844
0.00817523	2.6367
0.00822243	2.62501
0.0082699	2.61337
0.00831764	2.60178
0.00836566	2.59024
0.00841395	2.57875
0.00846253	2.5673
0.00851138	2.55591
0.00856052	2.54457
0.00860994	2.53327
0.00865964	2.52203
0.00870964	2.51083
0.00875992	2.49968
0.00881049	2.48858
0.00886135	2.47752
0.00891251	2.46652
0.00896396	2.45556
0.00901571	2.44465
0.00906776	2.43378
0.00912011	2.42297
0.00917276	2.4122
0.00922571	2.40147
0.00927897	2.39079
0.00933254	2.38016
0.00938642	2.36958
0.00944061	2.35904
0.00949511	2.34854
0.00954993	2.3381
0.00960506	2.32769
0.00966051	2.31734
0.00971628	2.30702
0.00977237	2.29676
0.00982879	2.28653
0.00988553	2.27635
0.0099426	2.26622
0.01	2.25613
0.0100577	2.24608
0.0101158	2.23608
0.0101742	2.22612
0.0102329	2.21621
0.010292	2.20633
0.0103514	2.19651
0.0104112	2.18672
0.0104713	2.17698
0.0105317	2.16728
0.0105925	2.15762
0.0106537	2.148
0.0107152	2.13843
0.0107771	2.1289
0.0108393	2.11941
0.0109018	2.10996
0.0109648	2.10055
0.0110281	2.09119
0.0110917	2.08186
0.0111558	2.07258
0.0112202	2.06334
0.011285	2.05414
0.0113501	2.04497
0.0114156	2.03585
0.0114815	2.02677
0.0115478	2.01773
0.0116145	2.00873
0.0116815	1.99977
0.011749	1.99085
0.0118168	1.98197
0.011885	1.97312
0.0119536	1.96432
0.0120226	1.95556
0.0120921	1.94683
0.0121619	1.93814
0.0122321	1.92949
0.0123027	1.92088
0.0123737	1.91231
0.0124451	1.90378
0.012517	1.89528
0.0125893	1.88682
0.0126619	1.8784
0.012735	1.87002
0.0128086	1.86167
0.0128825	1.85336
0.0129569	1.84509
0.0130317	1.83685
0.0131069	1.82866
0.0131826	1.82049
0.0132587	1.81237
0.0133352	1.80428
0.0134122	1.79622
0.0134896	1.78821
0.0135675	1.78023
0.0136458	1.77228
0.0137246	1.76437
0.0138038	1.75649
0.0138835	1.74865
0.0139637	1.74085
0.0140443	1.73308
0.0141254	1.72534
0.0142069	1.71764
0.0142889	1.70998
0.0143714	1.70235
0.0144544	1.69475
0.0145378	1.68719
0.0146218	1.67966
0.0147062	1.67216
0.0147911	1.6647
0.0148765	1.65727
0.0149624	1.64988
0.0150487	1.64252
0.0151356	1.63519
0.015223	1.62789
0.0153109	1.62063
0.0153993	1.6134
0.0154882	1.6062
0.0155776	1.59904
0.0156675	1.59191
0.015758	1.58481
0.0158489	1.57774
0.0159404	1.5707
0.0160325	1.5637
0.016125	1.55673
0.0162181	1.54979
0.0163117	1.54288
0.0164059	1.536
0.0165006	1.52915
0.0165959	1.52234
0.0166917	1.51555
0.016788	1.5088
0.016885	1.50208
0.0169824	1.49538
0.0170805	1.48872
0.0171791	1.48209
0.0172783	1.47549
0.017378	1.46891
0.0174783	1.46237
0.0175792	1.45586
0.0176807	1.44938
0.0177828	1.44292
0.0178855	1.4365
0.0179887	1.43011
0.0180926	1.42374
0.018197	1.41741
0.0183021	1.4111
0.0184077	1.40482
0.018514	1.39857
0.0186209	1.39235
0.0187284	1.38616
0.0188365	1.37999
0.0189452	1.37386
0.0190546	1.36775
0.0191646	1.36167
0.0192752	1.35562
0.0193865	1.34959
0.0194984	1.34359
0.019611	1.33762
0.0197242	1.33168
0.0198381	1.32577
0.0199526	1.31988
0.0200678	1.31402
0.0201837	1.30819
0.0203002	1.30238
0.0204174	1.2966
0.0205353	1.29085
0.0206538	1.28512
0.020773	1.27942
0.020893	1.27375
0.0210136	1.2681
0.0211349	1.26248
0.0212569	1.25688
0.0213796	1.25131
0.021503	1.24577
0.0216272	1.24025
0.021752	1.23475
0.0218776	1.22929
0.0220039	1.22384
0.0221309	1.21843
0.0222587	1.21303
0.0223872	1.20767
0.0225165	1.20232
0.0226464	1.19701
0.0227772	1.19171
0.0229087	1.18644
0.0230409	1.1812
0.0231739	1.17598
0.0233077	1.17078
0.0234423	1.16561
0.0235776	1.16047
0.0237137	1.15534
0.0238506	1.15024
0.0239883	1.14517
0.0241268	1.14011
0.0242661	1.13509
0.0244062	1.13008
0.0245471	1.1251
0.0246888	1.12014
0.0248313	1.1152
0.0249747	1.11029
0.0251189	1.1054
0.0252639	1.10053
0.0254097	1.09569
0.0255564	1.09087
0.025704	1.08607
0.0258523	1.08129
0.0260016	1.07654
0.0261517	1.07181
0.0263027	1.0671
0.0264545	1.06241
0.0266073	1.05774
0.0267609	1.0531
0.0269153	1.04848
0.0270707	1.04388
0.027227	1.0393
0.0273842	1.03474
0.0275423	1.0302
0.0277013	1.02569
0.0278612	1.0212
0.0280221	1.01672
0.0281838	1.01227
0.0283465	1.00784
0.0285102	1.00343
0.0286748	0.999044
0.0288403	0.994676
0.0290068	0.990329
0.0291743	0.986002
0.0293427	0.981695
0.0295121	0.977409
0.0296825	0.973143
0.0298538	0.968897
0.0300262	0.964671
0.0301995	0.960465
0.0303739	0.956279
0.0305492	0.952113
0.0307256	0.947966
0.030903	0.943839
0.0310814	0.939732
0.0312608	0.935644
0.0314413	0.931576
0.0316228	0.927526
0.0318053	0.923496
0.031989	0.919485
0.0321736	0.915494
0.0323594	0.911521
0.0325462	0.907567
0.0327341	0.903631
0.032923	0.899715
0.0331131	0.895817
0.0333043	0.891937
0.0334965	0.888076
0.0336899	0.884234
0.0338844	0.880409
0.03408	0.876603
0.0342768	0.872815
0.0344747	0.869046
0.0346737	0.865294
0.0348739	0.86156
0.0350752	0.857843
0.0352777	0.854145
0.0354813	0.850464
0.0356862	0.846801
0.0358922	0.843155
0.0360994	0.839527
0.0363078	0.835916
0.0365174	0.832323
0.0367282	0.828746
0.0369403	0.825187
0.0371535	0.821645
0.037368	0.81812
0.0375837	0.814612
0.0378007	0.81112
0.0380189	0.807645
0.0382384	0.804187
0.0384592	0.800746
0.0386812	0.797321
0.0389045	0.793913
0.0391291	0.790521
0.039355	0.787145
0.0395822	0.783786
0.0398107	0.780442
0.0400405	0.777115
0.0402717	0.773804
0.0405042	0.770509
0.040738	0.76723
0.0409732	0.763966
0.0412098	0.760719
0.0414477	0.757487
0.0416869	0.75427
0.0419276	0.751069
0.0421697	0.747884
0.0424131	0.744714
0.042658	0.741559
0.0429042	0.73842
0.0431519	0.735296
0.043401	0.732187
0.0436516	0.729093
0.0439036	0.726014
0.044157	0.72295
0.044412	0.719901
0.0446684	0.716867
0.0449262	0.713847
0.0451856	0.710842
0.0454465	0.707852
0.0457088	0.704876
0.0459727	0.701915
0.0462381	0.698968
0.046505	0.696035
0.0467735	0.693117
0.0470435	0.690213
0.0473151	0.687323
0.0475883	0.684448
0.047863	0.681586
0.0481393	0.678738
0.0484172	0.675904
0.0486968	0.673084
0.0489779	0.670278
0.0492606	0.667486
0.049545	0.664707
0.049831	0.661942
0.0501187	0.65919
0.0504081	0.656452
0.0506991	0.653727
0.0509918	0.651016
0.0512861	0.648318
0.0515822	0.645633
0.05188	0.642961
0.0521795	0.640302
0.0524807	0.637657
0.0527837	0.635025
0.0530884	0.632405
0.0533949	0.629798
0.0537032	0.627205
0.0540132	0.624623
0.054325	0.622055
0.0546387	0.6195
0.0549541	0.616956
0.0552713	0.614426
0.0555904	0.611908
0.0559114	0.609402
0.0562341	0.606909
0.0565588	0.604428
0.0568853	0.60196
0.0572137	0.599503
0.057544	0.597059
0.0578762	0.594627
0.0582103	0.592207
0.0585464	0.589799
0.0588844	0.587403
0.0592243	0.585019
0.0595662	0.582646
0.0599101	0.580286
0.060256	0.577937
0.0606038	0.5756
0.0609537	0.573274
0.0613056	0.57096
0.0616595	0.568657
0.0620155	0.566366
0.0623735	0.564087
0.0627336	0.561819
0.0630957	0.559562
0.06346	0.557316
0.0638263	0.555082
0.0641948	0.552858
0.0645654	0.550646
0.0649382	0.548445
0.0653131	0.546255
0.0656901	0.544076
0.0660693	0.541908
0.0664508	0.53975
0.0668344	0.537604
0.0672202	0.535468
0.0676083	0.533343
0.0679986	0.531229
0.0683912	0.529125
0.068786	0.527032
0.0691831	0.524949
0.0695825	0.522877
0.0699842	0.520816
0.0703882	0.518764
0.0707946	0.516723
0.0712033	0.514693
0.0716143	0.512672
0.0720278	0.510662
0.0724436	0.508662
0.0728618	0.506672
0.0732825	0.504692
0.0737055	0.502722
0.074131	0.500762
0.074559	0.498812
0.0749894	0.496872
0.0754223	0.494942
0.0758578	0.493021
0.0762957	0.49111
0.0767361	0.489209
0.0771792	0.487318
0.0776247	0.485436
0.0780728	0.483564
0.0785236	0.481701
0.0789769	0.479848
0.0794328	0.478005
0.0798914	0.47617
0.0803526	0.474345
0.0808165	0.47253
0.0812831	0.470723
0.0817523	0.468926
0.0822243	0.467138
0.082699	0.465359
0.0831764	0.46359
0.0836566	0.461829
0.0841395	0.460078
0.0846253	0.458335
0.0851138	0.456601
0.0856052	0.454877
0.0860994	0.453161
0.0865964	0.451454
0.0870964	0.449755
0.0875992	0.448066
0.0881049	0.446385
0.0886135	0.444713
0.0891251	0.443049
0.0896396	0.441394
0.0901571	0.439748
0.0906776	0.43811
0.0912011	0.436481
0.0917276	0.43486
0.0922571	0.433247
0.0927897	0.431643
0.0933254	0.430047
0.0938642	0.428459
0.0944061	0.42688
0.0949511	0.425309
0.0954993	0.423746
0.0960506	0.422191
0.0966051	0.420644
0.0971628	0.419105
0.0977237	0.417575
0.0982879	0.416052
0.0988553	0.414537
0.099426	0.41303
0.1	0.411532
0.100577	0.41004
0.101158	0.408557
0.101742	0.407082
0.102329	0.405614
0.10292	0.404154
0.103514	0.402701
0.104112	0.401256
0.104713	0.399819
0.105317	0.39839
0.105925	0.396968
0.106537	0.395553
0.107152	0.394146
0.107771	0.392746
0.108393	0.391354
0.109018	0.389969
0.109648	0.388591
0.110281	0.387221
0.110917	0.385858
0.111558	0.384502
0.112202	0.383153
0.11285	0.381812
0.113501	0.380477
0.114156	0.37915
0.114815	0.37783
0.115478	0.376517
0.116145	0.375211
0.116815	0.373911
0.11749	0.372619
0.118168	0.371334
0.11885	0.370055
0.119536	0.368784
0.120226	0.367519
0.120921	0.366261
0.121619	0.36501
0.122321	0.363765
0.123027	0.362527
0.123737	0.361296
0.124451	0.360071
0.12517	0.358853
0.125893	0.357642
0.126619	0.356437
0.12735	0.355239
0.128086	0.354047
0.128825	0.352862
0.129569	0.351683
0.130317	0.35051
0.131069	0.349344
0.131826	0.348184
0.132587	0.34703
0.133352	0.345883
0.134122	0.344742
0.134896	0.343607
0.135675	0.342479
0.136458	0.341356
0.137246	0.34024
0.138038	0.33913
0.138835	0.338026
0.139637	0.336928
0.140443	0.335836
0.141254	0.33475
0.142069	0.33367
0.142889	0.332596
0.143714	0.331528
0.144544	0.330465
0.145378	0.329409
0.146218	0.328358
0.147062	0.327314
0.147911	0.326275
0.148765	0.325242
0.149624	0.324214
0.150487	0.323192
0.151356	0.322176
0.15223	0.321166
0.153109	0.320161
0.153993	0.319162
0.154882	0.318169
0.155776	0.317181
0.156675	0.316198
0.15758	0.315221
0.158489	0.31425
0.159404	0.313284
0.160325	0.312323
0.16125	0.311368
0.162181	0.310419
0.163117	0.309474
0.164059	0.308535
0.165006	0.307601
0.165959	0.306673
0.166917	0.30575
0.16788	0.304832
0.16885	0.303919
0.169824	0.303012
0.170805	0.302109
0.171791	0.301212
0.172783	0.30032
0.17378	0.299433
0.174783	0.298551
0.175792	0.297674
0.176807	0.296803
0.177828	0.295936
0.178855	0.295074
0.179887	0.294217
0.180926	0.293366
0.18197	0.292519
0.183021	0.291677
0.184077	0.290839
0.18514	0.290007
0.186209	0.28918
0.187284	0.288357
0.188365	0.287539
0.189452	0.286726
0.190546	0.285918
0.191646	0.285114
0.192752	0.284315
0.193865	0.283521
0.194984	0.282732
0.19611	0.281947
0.197242	0.281167
0.198381	0.280391
0.199526	0.27962
0.200678	0.278853
0.201837	0.278091
0.203002	0.277334
0.204174	0.276581
0.205353	0.275833
0.206538	0.275089
0.20773	0.274349
0.20893	0.273614
0.210136	0.272883
0.211349	0.272157
0.212569	0.271435
0.213796	0.270717
0.21503	0.270004
0.216272	0.269295
0.21752	0.26859
0.218776	0.26789
0.220039	0.267194
0.221309	0.266502
0.222587	0.265814
0.223872	0.26513
0.225165	0.264451
0.226464	0.263776
0.227772	0.263105
0.229087	0.262438
0.230409	0.261775
0.231739	0.261116
0.233077	0.260461
0.234423	0.259811
0.235776	0.259164
0.237137	0.258521
0.238506	0.257883
0.239883	0.257248
0.241268	0.256617
0.242661	0.255991
0.244062	0.255368
0.245471	0.254749
0.246888	0.254134
0.248313	0.253522
0.249747	0.252915
0.251189	0.252312
0.252639	0.251712
0.254097	0.251116
0.255564	0.250524
0.25704	0.249935
0.258523	0.249351
0.260016	0.24877
0.261517	0.248193
0.263027	0.247619
0.264545	0.24705
0.266073	0.246483
0.267609	0.245921
0.269153	0.245362
0.270707	0.244807
0.27227	0.244255
0.273842	0.243707
0.275423	0.243163
0.277013	0.242622
0.278612	0.242085
0.280221	0.241551
0.281838	0.241021
0.283465	0.240494
0.285102	0.239971
0.286748	0.239451
0.288403	0.238934
0.290068	0.238421
0.291743	0.237912
0.293427	0.237406
0.295121	0.236903
0.296825	0.236403
0.298538	0.235907
0.300262	0.235415
0.301995	0.234925
0.303739	0.234439
0.305492	0.233957
0.307256	0.233477
0.30903	0.233001
0.310814	0.232528
0.312608	0.232058
0.314413	0.231592
0.316228	0.231128
0.318053	0.230668
0.31989	0.230211
0.321736	0.229758
0.323594	0.229307
0.325462	0.22886
0.327341	0.228415
0.32923	0.227974
0.331131	0.227536
0.333043	0.227101
0.334965	0.226669
0.336899	0.22624
0.338844	0.225814
0.3408	0.225392
0.342768	0.224972
0.344747	0.224555
0.346737	0.224141
0.348739	0.223731
0.350752	0.223323
0.352777	0.222918
0.354813	0.222516
0.356862	0.222117
0.358922	0.221721
0.360994	0.221328
0.363078	0.220937
0.365174	0.22055
0.367282	0.220165
0.369403	0.219784
0.371535	0.219405
0.37368	0.219029
0.375837	0.218655
0.378007	0.218285
0.380189	0.217917
0.382384	0.217552
0.384592	0.21719
0.386812	0.216831
0.389045	0.216474
0.391291	0.21612
0.39355	0.215769
0.395822	0.215421
0.398107	0.215075
0.400405	0.214732
0.402717	0.214391
0.405042	0.214053
0.40738	0.213718
0.409732	0.213386
0.412098	0.213056
0.414477	0.212728
0.416869	0.212404
0.419276	0.212082
0.421697	0.211762
0.424131	0.211445
0.42658	0.211131
0.429042	0.210819
0.431519	0.210509
0.43401	0.210202
0.436516	0.209898
0.439036	0.209596
0.44157	0.209297
0.44412	0.209
0.446684	0.208705
0.449262	0.208413
0.451856	0.208124
0.454465	0.207837
0.457088	0.207552
0.459727	0.20727
0.462381	0.20699
0.46505	0.206712
0.467735	0.206437
0.470435	0.206164
0.473151	0.205894
0.475883	0.205626
0.47863	0.20536
0.481393	0.205096
0.484172	0.204835
0.486968	0.204576
0.489779	0.20432
0.492606	0.204066
0.49545	0.203814
0.49831	0.203564
0.501187	0.203316
0.504081	0.203071
0.506991	0.202828
0.509918	0.202576
0.512861	0.202326
0.515822	0.202078
0.5188	0.201832
0.521795	0.201589
0.524807	0.201347
0.527837	0.201108
0.530884	0.20087
0.533949	0.200635
0.537032	0.200402
0.540132	0.20017
0.54325	0.199941
0.546387	0.199714
0.549541	0.199488
0.552713	0.199265
0.555904	0.199043
0.559114	0.198824
0.562341	0.198606
0.565588	0.198391
0.568853	0.198177
0.572137	0.197965
0.57544	0.197755
0.578762	0.197547
0.582103	0.197341
0.585464	0.197137
0.588844	0.196935
0.592243	0.196734
0.595662	0.196536
0.599101	0.196339
0.60256	0.196144
0.606038	0.195951
0.609537	0.19576
0.613056	0.19557
0.616595	0.195383
0.620155	0.195197
0.623735	0.195013
0.627336	0.19483
0.630957	0.19465
0.6346	0.194471
0.638263	0.194294
0.641948	0.194119
0.645654	0.193945
0.649382	0.193773
0.653131	0.193603
0.656901	0.193434
0.660693	0.193268
0.664508	0.193103
0.668344	0.192939
0.672202	0.192777
0.676083	0.192617
0.679986	0.192459
0.683912	0.192302
0.68786	0.192147
0.691831	0.191993
0.695825	0.191842
0.699842	0.191691
0.703882	0.191543
0.707946	0.191395
0.712033	0.19125
0.716143	0.191106
0.720278	0.190964
0.724436	0.190823
0.728618	0.190684
0.732825	0.190546
0.737055	0.19041
0.74131	0.190275
0.74559	0.190142
0.749894	0.19001
0.754223	0.18988
0.758578	0.189751
0.762957	0.189624
0.767361	0.189499
0.771792	0.189374
0.776247	0.189252
0.780728	0.189131
0.785236	0.189011
0.789769	0.188892
0.794328	0.188775
0.798914	0.18866
0.803526	0.188546
0.808165	0.188433
0.812831	0.188322
0.817523	0.188212
0.822243	0.188103
0.82699	0.187996
0.831764	0.18789
0.836566	0.187786
0.841395	0.187683
0.846253	0.187581
0.851138	0.187481
0.856052	0.187382
0.860994	0.187284
0.865964	0.187188
0.870964	0.187093
0.875992	0.186999
0.881049	0.186906
0.886135	0.186815
0.891251	0.186725
0.896396	0.186637
0.901571	0.186549
0.906776	0.186463
0.912011	0.186378
0.917276	0.186295
0.922571	0.186212
0.927897	0.186131
0.933254	0.186051
0.938642	0.185973
0.944061	0.185895
0.949511	0.185819
0.954993	0.185744
0.960506	0.18567
0.966051	0.185597
0.971628	0.185526
0.977237	0.185455
0.982879	0.185386
0.988553	0.185318
0.99426	0.185251
1	0.185185
1.00577	0.185121
1.01158	0.185057
1.01742	0.184995
1.02329	0.184933
1.0292	0.184873
1.03514	0.184814
1.04112	0.184756
1.04713	0.184699
1.05317	0.184643
1.05925	0.184589
1.06537	0.184535
1.07152	0.184482
1.07771	0.184431
1.08393	0.18438
1.09018	0.184331
1.09648	0.184282
1.10281	0.184235
1.10917	0.184188
1.11558	0.184143
1.12202	0.184098
1.1285	0.184055
1.13501	0.184013
1.14156	0.183971
1.14815	0.183931
1.15478	0.183891
1.16145	0.183853
1.16815	0.183815
1.1749	0.183779
1.18168	0.183743
1.1885	0.183708
1.19536	0.183674
1.20226	0.183642
1.20921	0.18361
1.21619	0.183579
1.22321	0.183549
1.23027	0.183519
1.23737	0.183491
1.24451	0.183464
1.2517	0.183437
1.25893	0.183412
1.26619	0.183387
1.2735	0.183363
1.28086	0.18334
1.28825	0.183318
1.29569	0.183297
1.30317	0.183276
1.31069	0.183257
1.31826	0.183238
1.32587	0.18322
1.33352	0.183203
1.34122	0.183187
1.34896	0.183171
1.35675	0.183156
1.36458	0.183143
1.37246	0.183129
1.38038	0.183117
1.38835	0.183106
1.39637	0.183095
1.40443	0.183085
1.41254	0.183076
1.42069	0.183067
1.42889	0.18306
1.43714	0.183053
1.44544	0.183047
1.45378	0.183041
1.46218	0.183036
1.47062	0.183032
1.47911	0.183029
1.48765	0.183027
1.49624	0.183025
1.50487	0.183024
1.51356	0.183023
1.5223	0.183023
1.53109	0.183024
1.53993	0.183026
1.54882	0.183028
1.55776	0.183031
1.56675	0.183035
1.5758	0.183039
1.58489	0.183044
1.59404	0.18305
1.60325	0.183056
1.6125	0.183063
1.62181	0.183071
1.63117	0.183079
1.64059	0.183088
1.65006	0.183097
1.65959	0.183108
1.66917	0.183118
1.6788	0.18313
1.6885	0.183142
1.69824	0.183154
1.70805	0.183167
1.71791	0.183181
1.72783	0.183195
1.7378	0.18321
1.74783	0.183226
1.75792	0.183242
1.76807	0.183258
1.77828	0.183275
1.78855	0.183293
1.79887	0.183311
1.80926	0.18333
1.8197	0.183349
1.83021	0.183369
1.84077	0.18339
1.8514	0.183411
1.86209	0.183432
1.87284	0.183454
1.88365	0.183477
1.89452	0.1835
1.90546	0.183523
1.91646	0.183547
1.92752	0.183572
1.93865	0.183597
1.94984	0.183622
1.9611	0.183648
1.97242	0.183675
1.98381	0.183702
1.99526	0.183729
2.00678	0.183757
2.01837	0.183786
2.03002	0.183814
2.04174	0.183844
2.05353	0.183873
2.06538	0.183904
2.0773	0.183934
2.0893	0.183965
2.10136	0.183997
2.11349	0.184029
2.12569	0.184061
2.13796	0.184094
2.1503	0.184127
2.16272	0.184161
2.1752	0.184195
2.18776	0.184229
2.20039	0.184264
2.21309	0.184299
2.22587	0.184335
2.23872	0.184371
2.25165	0.184407
2.26464	0.184444
2.27772	0.184481
2.29087	0.184519
2.30409	0.184557
2.31739	0.184595
2.33077	0.184634
2.34423	0.184673
2.35776	0.184712
2.37137	0.184752
2.38506	0.184792
2.39883	0.184832
2.41268	0.184873
2.42661	0.184914
2.44062	0.184956
2.45471	0.184998
2.46888	0.18504
2.48313	0.185082
2.49747	0.185125
2.51189	0.185168
2.52639	0.185211
2.54097	0.185255
2.55564	0.185299
2.5704	0.185343
2.58523	0.185388
2.60016	0.185433
2.61517	0.185478
2.63027	0.185524
2.64545	0.18557
2.66073	0.185616
2.67609	0.185662
2.69153	0.185709
2.70707	0.185756
2.7227	0.185803
2.73842	0.18585
2.75423	0.185898
2.77013	0.185946
2.78612	0.185994
2.80221	0.186043
2.81838	0.186092
2.83465	0.186141
2.85102	0.18619
2.86748	0.18624
2.88403	0.186289
2.90068	0.186339
2.91743	0.18639
2.93427	0.18644
2.95121	0.186491
2.96825	0.186542
2.98538	0.186593
3.00262	0.186644
3.01995	0.186696
3.03739	0.186748
3.05492	0.1868
3.07256	0.186852
3.0903	0.186905
3.10814	0.186957
3.12608	0.18701
3.14413	0.187063
3.16228	0.187117
3.18053	0.18717
3.1989	0.187224
3.21736	0.187278
3.23594	0.187332
3.25462	0.187386
3.27341	0.187441
3.2923	0.187495
3.31131	0.18755
3.33043	0.187605
3.34965	0.18766
3.36899	0.187715
3.38844	0.187771
3.408	0.187827
3.42768	0.187882
3.44747	0.187938
3.46737	0.187994
3.48739	0.188051
3.50752	0.188107
3.52777	0.188164
3.54813	0.188221
3.56862	0.188277
3.58922	0.188335
3.60994	0.188392
3.63078	0.188449
3.65174	0.188507
3.67282	0.188564
3.69403	0.188622
3.71535	0.18868
3.7368	0.188738
3.75837	0.188796
3.78007	0.188854
3.80189	0.188913
3.82384	0.188971
3.84592	0.18903
3.86812	0.189088
3.89045	0.189147
3.91291	0.189206
3.9355	0.189265
3.95822	0.189324
3.98107	0.189384
4.00405	0.189443
4.02717	0.189503
4.05042	0.189562
4.0738	0.189622
4.09732	0.189682
4.12098	0.189742
4.14477	0.189802
4.16869	0.189862
4.19276	0.189922
4.21697	0.189982
4.24131	0.190043
4.2658	0.190103
4.29042	0.190164
4.31519	0.190224
4.3401	0.190285
4.36516	0.190346
4.39036	0.190407
4.4157	0.190468
4.4412	0.190529
4.46684	0.19059
4.49262	0.190651
4.51856	0.190712
4.54465	0.190773
4.57088	0.190835
4.59727	0.190896
4.62381	0.190957
4.6505	0.191019
4.67735	0.191081
4.70435	0.191142
4.73151	0.191204
4.75883	0.191266
4.7863	0.191328
4.81393	0.191389
4.84172	0.191451
4.86968	0.191513
4.89779	0.191575
4.92606	0.191637
4.9545	0.1917
4.9831	0.191762
5.01187	0.191824
5.04081	0.191886
5.06991	0.191948
5.09918	0.192011
5.12861	0.192073
5.15822	0.192135
5.188	0.192198
5.21795	0.19226
5.24807	0.192323
5.27837	0.192385
5.30884	0.192448
5.33949	0.19251
5.37032	0.192573
5.40132	0.192636
5.4325	0.192698
5.46387	0.192761
5.49541	0.192824
5.52713	0.192886
5.55904	0.192949
5.59114	0.193012
5.62341	0.193075
5.65588	0.193138
5.68853	0.1932
5.72137	0.193263
5.7544	0.193326
5.78762	0.193389
5.82103	0.193452
5.85464	0.193515
5.88844	0.193577
5.92243	0.19364
5.95662	0.193703
5.99101	0.193766
6.0256	0.193829
6.06038	0.193892
6.09537	0.193955
6.13056	0.194018
6.16595	0.194081
6.20155	0.194144
6.23735	0.194206
6.27336	0.194269
6.30957	0.194332
6.346	0.194395
6.38263	0.194458
6.41948	0.194521
6.45654	0.194584
6.49382	0.194647
6.53131	0.19471
6.56901	0.194773
6.60693	0.194835
6.64508	0.194898
6.68344	0.194961
6.72202	0.195024
6.76083	0.195087
6.79986	0.195149
6.83912	0.195212
6.8786	0.195275
6.91831	0.195338
6.95825	0.195401
6.99842	0.195463
7.03882	0.195526
7.07946	0.195589
7.12033	0.195651
7.16143	0.195714
7.20278	0.195777
7.24436	0.195839
7.28618	0.195902
7.32825	0.195964
7.37055	0.196027
7.4131	0.196089
7.4559	0.196152
7.49894	0.196214
7.54223	0.196277
7.58578	0.196339
7.62957	0.196402
7.67361	0.196464
7.71792	0.196526
7.76247	0.196589
7.80728	0.196651
7.85236	0.196713
7.89769	0.196775
7.94328	0.196837
7.98914	0.1969
8.03526	0.196962
8.08165	0.197024
8.12831	0.197086
8.17523	0.197148
8.22243	0.19721
8.2699	0.197272
8.31764	0.197334
8.36566	0.197396
8.41395	0.197457
8.46253	0.197519
8.51138	0.197581
8.56052	0.197643
8.60994	0.197704
8.65964	0.197766
8.70964	0.197828
8.75992	0.197889
8.81049	0.197951
8.86135	0.198012
8.91251	0.198074
8.96396	0.198135
9.01571	0.198197
9.06776	0.198258
9.12011	0.198319
9.17276	0.19838
9.22571	0.198442
9.27897	0.198503
9.33254	0.198564
9.38642	0.198625
9.44061	0.198686
9.49511	0.198747
9.54993	0.198808
9.60506	0.198869
9.66051	0.19893
9.71628	0.198991
9.77237	0.199051
9.82879	0.199112
9.88553	0.199173
9.9426	0.199233
10	0.199294
10.0577	0.199355
10.1158	0.199415
10.1742	0.199475
10.2329	0.199536
10.292	0.199596
10.3514	0.199657
10.4112	0.199717
10.4713	0.199777
10.5317	0.199837
10.5925	0.199897
10.6537	0.199957
10.7152	0.200017
10.7771	0.200077
10.8393	0.200137
10.9018	0.200197
10.9648	0.200257
11.0281	0.200317
11.0917	0.200376
11.1558	0.200436
11.2202	0.200496
11.285	0.200555
11.3501	0.200615
11.4156	0.200674
11.4815	0.200734
11.5478	0.200793
11.6145	0.200852
11.6815	0.200911
11.749	0.200971
11.8168	0.20103
11.885	0.201089
11.9536	0.201148
12.0226	0.201207
12.0921	0.201266
12.1619	0.201325
12.2321	0.201383
12.3027	0.201442
12.3737	0.201501
12.4451	0.20156
12.517	0.201618
12.5893	0.201677
12.6619	0.201735
12.735	0.201794
12.8086	0.201852
12.8825	0.201911
12.9569	0.201969
13.0317	0.202027
13.1069	0.202085
13.1826	0.202143
13.2587	0.202201
13.3352	0.20226
13.4122	0.202317
13.4896	0.202375
13.5675	0.202433
13.6458	0.202491
13.7246	0.202549
13.8038	0.202607
13.8835	0.202664
13.9637	0.202722
14.0443	0.202779
14.1254	0.202837
14.2069	0.202894
14.2889	0.202952
14.3714	0.203009
14.4544	0.203066
14.5378	0.203123
14.6218	0.203181
14.7062	0.203238
14.7911	0.203295
14.8765	0.203352
14.9624	0.203409
15.0487	0.203466
15.1356	0.203523
15.223	0.203579
15.3109	0.203636
15.3993	0.203693
15.4882	0.203749
15.5776	0.203806
15.6675	0.203862
15.758	0.203919
15.8489	0.203975
15.9404	0.204032
16.0325	0.204088
16.125	0.204144
16.2181	0.2042
16.3117	0.204257
16.4059	0.204313
16.5006	0.204369
16.5959	0.204425
16.6917	0.204481
16.788	0.204537
16.885	0.204592
16.9824	0.204648
17.0805	0.204704
17.1791	0.20476
17.2783	0.204815
17.378	0.204871
17.4783	0.204926
17.5792	0.204982
17.6807	0.205037
17.7828	0.205093
17.8855	0.205148
17.9887	0.205203
18.0926	0.205259
18.197	0.205314
18.3021	0.205369
18.4077	0.205424
18.514	0.205479
18.6209	0.205534
18.7284	0.205589
18.8365	0.205644
18.9452	0.205698
19.0546	0.205753
19.1646	0.205808
19.2752	0.205863
19.3865	0.205917
19.4984	0.205972
19.611	0.206026
19.7242	0.206081
19.8381	0.206135
19.9526	0.20619
20.0678	0.206244
20.1837	0.206298
20.3002	0.206352
20.4174	0.206407
20.5353	0.206461
20.6538	0.206515
20.773	0.206569
20.893	0.206623
21.0136	0.206677
21.1349	0.206731
21.2569	0.206785
21.3796	0.206838
21.503	0.206892
21.6272	0.206946
21.752	0.207
21.8776	0.207053
22.0039	0.207107
22.1309	0.20716
22.2587	0.207214
22.3872	0.207267
22.5165	0.207321
22.6464	0.207374
22.7772	0.207427
22.9087	0.207481
23.0409	0.207534
23.1739	0.207587
23.3077	0.20764
23.4423	0.207693
23.5776	0.207746
23.7137	0.207799
23.8506	0.207852
23.9883	0.207905
24.1268	0.207958
24.2661	0.208011
24.4062	0.208064
24.5471	0.208117
24.6888	0.208169
24.8313	0.208222
24.9747	0.208275
25.1189	0.208327
25.2639	0.20838
25.4097	0.208432
25.5564	0.208485
25.704	0.208537
25.8523	0.20859
26.0016	0.208642
26.1517	0.208694
26.3027	0.208746
26.4545	0.208799
26.6073	0.208851
26.7609	0.208903
26.9153	0.208955
27.0707	0.209007
27.227	0.209059
27.3842	0.209111
27.5423	0.209163
27.7013	0.209215
27.8612	0.209267
28.0221	0.209319
28.1838	0.209371
28.3465	0.209423
28.5102	0.209474
28.6748	0.209526
28.8403	0.209578
29.0068	0.209629
29.1743	0.209681
29.3427	0.209733
29.5121	0.209784
29.6825	0.209836
29.8538	0.209887
30.0262	0.209939
30.1995	0.20999
30.3739	0.210042
30.5492	0.210093
30.7256	0.210144
30.903	0.210196
31.0814	0.210247
31.2608	0.210298
31.4413	0.210349
31.6228	0.2104
31.8053	0.210452
31.989	0.210503
32.1736	0.210554
32.3594	0.210605
32.5462	0.210656
32.7341	0.210707
32.923	0.210758
33.1131	0.210809
33.3043	0.21086
33.4965	0.21091
33.6899	0.210961
33.8844	0.211012
34.08	0.211063
34.2768	0.211114
34.4747	0.211164
34.6737	0.211215
34.8739	0.211266
35.0752	0.211316
35.2777	0.211367
35.4813	0.211418
35.6862	0.211468
35.8922	0.211519
36.0994	0.211569
36.3078	0.21162
36.5174	0.21167
36.7282	0.211721
36.9403	0.211771
37.1535	0.211822
37.368	0.211872
37.5837	0.211923
37.8007	0.211973
38.0189	0.212023
38.2384	0.212074
38.4592	0.212124
38.6812	0.212174
38.9045	0.212224
39.1291	0.212275
39.355	0.212325
39.5822	0.212375
39.8107	0.212425
40.0405	0.212475
40.2717	0.212525
40.5042	0.212576
40.738	0.212626
40.9732	0.212676
41.2098	0.212726
41.4477	0.212776
41.6869	0.212826
41.9276	0.212876
42.1697	0.212926
42.4131	0.212976
42.658	0.213026
42.9042	0.213076
43.1519	0.213126
43.401	0.213176
43.6516	0.213226
43.9036	0.213275
44.157	0.213325
44.412	0.213375
44.6684	0.213425
44.9262	0.213475
45.1856	0.213525
45.4465	0.213574
45.7088	0.213624
45.9727	0.213674
46.2381	0.213724
46.505	0.213774
46.7735	0.213823
47.0435	0.213873
47.3151	0.213923
47.5883	0.213973
47.863	0.214022
48.1393	0.214072
48.4172	0.214122
48.6968	0.214171
48.9779	0.214221
49.2606	0.214271
49.545	0.21432
49.831	0.21437
50.1187	0.21442
50.4081	0.214469
50.6991	0.214519
50.9918	0.214569
51.2861	0.214618
51.5822	0.214668
51.88	0.214717
52.1795	0.214767
52.4807	0.214817
52.7837	0.214866
53.0884	0.214916
53.3949	0.214965
53.7032	0.215015
54.0132	0.215065
54.325	0.215114
54.6387	0.215164
54.9541	0.215213
55.2713	0.215263
55.5904	0.215312
55.9114	0.215362
56.2341	0.215412
56.5588	0.215461
56.8853	0.215511
57.2137	0.21556
57.544	0.21561
57.8762	0.215659
58.2103	0.215709
58.5464	0.215758
58.8844	0.215808
59.2243	0.215858
59.5662	0.215907
59.9101	0.215957
60.256	0.216006
60.6038	0.216056
60.9537	0.216105
61.3056	0.216155
61.6595	0.216204
62.0155	0.216254
62.3735	0.216303
62.7336	0.216353
63.0957	0.216403
63.46	0.216452
63.8263	0.216502
64.1948	0.216551
64.5654	0.216601
64.9382	0.21665
65.3131	0.2167
65.6901	0.216749
66.0693	0.216799
66.4508	0.216848
66.8344	0.216898
67.2202	0.216947
67.6083	0.216997
67.9986	0.217046
68.3912	0.217096
68.786	0.217145
69.1831	0.217195
69.5825	0.217244
69.9842	0.217294
70.3882	0.217343
70.7946	0.217393
71.2033	0.217442
71.6143	0.217492
72.0278	0.217541
72.4436	0.217591
72.8618	0.21764
73.2825	0.21769
73.7055	0.217739
74.131	0.217789
74.559	0.217838
74.9894	0.217888
75.4223	0.217937
75.8578	0.217987
76.2957	0.218036
76.7361	0.218086
77.1792	0.218135
77.6247	0.218185
78.0728	0.218234
78.5236	0.218284
78.9769	0.218333
79.4328	0.218382
79.8914	0.218432
80.3526	0.218481
80.8165	0.218531
81.2831	0.21858
81.7523	0.21863
82.2243	0.218679
82.699	0.218729
83.1764	0.218778
83.6566	0.218828
84.1395	0.218877
84.6253	0.218926
85.1138	0.218976
85.6052	0.219025
86.0994	0.219075
86.5964	0.219124
87.0964	0.219174
87.5992	0.219223
88.1049	0.219273
88.6135	0.219322
89.1251	0.219371
89.6396	0.219421
90.1571	0.21947
90.6776	0.21952
91.2011	0.219569
91.7276	0.219618
92.2571	0.219668
92.7897	0.219717
93.3254	0.219767
93.8642	0.219816
94.4061	0.219866
94.9511	0.219915
95.4993	0.219964
96.0506	0.220014
96.6051	0.220063
97.1628	0.220113
97.7237	0.220162
98.2879	0.220211
98.8553	0.220261
99.426	0.22031
100	0.22036
100.577	0.220409
101.158	0.220458
101.742	0.220508
102.329	0.220557
102.92	0.220607
103.514	0.220656
104.112	0.220705
104.713	0.220755
105.317	0.220804
105.925	0.220854
106.537	0.220903
107.152	0.220952
107.771	0.221002
108.393	0.221051
109.018	0.2211
109.648	0.22115
110.281	0.221199
110.917	0.221249
111.558	0.221298
112.202	0.221347
112.85	0.221397
113.501	0.221446
114.156	0.221495
114.815	0.221545
115.478	0.221594
116.145	0.221643
116.815	0.221693
117.49	0.221742
118.168	0.221792
118.85	0.221841
119.536	0.22189
120.226	0.22194
120.921	0.221989
121.619	0.222038
122.321	0.222088
123.027	0.222137
123.737	0.222186
124.451	0.222236
125.17	0.222285
125.893	0.222334
126.619	0.222384
127.35	0.222433
128.086	0.222482
128.825	0.222532
129.569	0.222581
130.317	0.22263
131.069	0.22268
131.826	0.222729
132.587	0.222778
133.352	0.222828
134.122	0.222877
134.896	0.222926
135.675	0.222976
136.458	0.223025
137.246	0.223074
138.038	0.223124
138.835	0.223173
139.637	0.223222
140.443	0.223272
141.254	0.223321
142.069	0.22337
142.889	0.22342
143.714	0.223469
144.544	0.223518
145.378	0.223567
146.218	0.223617
147.062	0.223666
147.911	0.223715
148.765	0.223765
149.624	0.223814
150.487	0.223863
151.356	0.223913
152.23	0.223962
153.109	0.224011
153.993	0.22406
154.882	0.22411
155.776	0.224159
156.675	0.224208
157.58	0.224258
158.489	0.224307
159.404	0.224356
160.325	0.224405
161.25	0.224455
162.181	0.224504
163.117	0.224553
164.059	0.224603
165.006	0.224652
165.959	0.224701
166.917	0.22475
167.88	0.2248
168.85	0.224849
169.824	0.224898
170.805	0.224948
171.791	0.224997
172.783	0.225046
173.78	0.225095
174.783	0.225145
175.792	0.225194
176.807	0.225243
177.828	0.225292
178.855	0.225342
179.887	0.225391
180.926	0.22544
181.97	0.22549
183.021	0.225539
184.077	0.225588
185.14	0.225637
186.209	0.225687
187.284	0.225736
188.365	0.225785
189.452	0.225834
190.546	0.225884
191.646	0.225933
192.752	0.225982
193.865	0.226031
194.984	0.226081
196.11	0.22613
197.242	0.226179
198.381	0.226228
199.526	0.226278
200.678	0.226327
201.837	0.226376
203.002	0.226425
204.174	0.226475
205.353	0.226524
206.538	0.226573
207.73	0.226622
208.93	0.226672
210.136	0.226721
211.349	0.22677
212.569	0.226819
213.796	0.226869
215.03	0.226918
216.272	0.226967
217.52	0.227016
218.776	0.227065
220.039	0.227115
221.309	0.227164
222.587	0.227213
223.872	0.227262
225.165	0.227312
226.464	0.227361
227.772	0.22741
229.087	0.227459
230.409	0.227509
231.739	0.227558
233.077	0.227607
234.423	0.227656
235.776	0.227705
237.137	0.227755
238.506	0.227804
239.883	0.227853
241.268	0.227902
242.661	0.227951
244.062	0.228001
245.471	0.22805
246.888	0.228099
248.313	0.228148
249.747	0.228198
251.189	0.228247
252.639	0.228296
254.097	0.228345
255.564	0.228394
257.04	0.228444
258.523	0.228493
260.016	0.228542
261.517	0.228591
263.027	0.22864
264.545	0.22869
266.073	0.228739
267.609	0.228788
269.153	0.228837
270.707	0.228886
272.27	0.228936
273.842	0.228985
275.423	0.229034
277.013	0.229083
278.612	0.229132
280.221	0.229182
281.838	0.229231
283.465	0.22928
285.102	0.229329
286.748	0.229378
288.403	0.229428
290.068	0.229477
291.743	0.229526
293.427	0.229575
295.121	0.229624
296.825	0.229674
298.538	0.229723
300.262	0.229772
301.995	0.229821
303.739	0.22987
305.492	0.22992
307.256	0.229969
309.03	0.230018
310.814	0.230067
312.608	0.230116
314.413	0.230165
316.228	0.230215
318.053	0.230264
319.89	0.230313
321.736	0.230362
323.594	0.230411
325.462	0.230461
327.341	0.23051
329.23	0.230559
331.131	0.230608
333.043	0.230657
334.965	0.230706
336.899	0.230756
338.844	0.230805
340.8	0.230854
342.768	0.230903
344.747	0.230952
346.737	0.231001
348.739	0.231051
350.752	0.2311
352.777	0.231149
354.813	0.231198
356.862	0.231247
358.922	0.231296
360.994	0.231346
363.078	0.231395
365.174	0.231444
367.282	0.231493
369.403	0.231542
371.535	0.231591
373.68	0.231641
375.837	0.23169
378.007	0.231739
380.189	0.231788
382.384	0.231837
384.592	0.231886
386.812	0.231936
389.045	0.231985
391.291	0.232034
393.55	0.232083
395.822	0.232132
398.107	0.232181
400.405	0.232231
402.717	0.23228
405.042	0.232329
407.38	0.232378
409.732	0.232427
412.098	0.232476
414.477	0.232526
416.869	0.232575
419.276	0.232624
421.697	0.232673
424.131	0.232722
426.58	0.232771
429.042	0.23282
431.519	0.23287
434.01	0.232919
436.516	0.232968
439.036	0.233017
441.57	0.233066
444.12	0.233115
446.684	0.233164
449.262	0.233214
451.856	0.233263
454.465	0.233312
457.088	0.233361
459.727	0.23341
462.381	0.233459
465.05	0.233509
467.735	0.233558
470.435	0.233607
473.151	0.233656
475.883	0.233705
478.63	0.233754
481.393	0.233803
484.172	0.233853
486.968	0.233902
489.779	0.233951
492.606	0.234
495.45	0.234049
498.31	0.234098
501.187	0.234147
504.081	0.234196
506.991	0.234246
509.918	0.234295
512.861	0.234344
515.822	0.234393
518.8	0.234442
521.795	0.234491
524.807	0.23454
527.837	0.23459
530.884	0.234639
533.949	0.234688
537.032	0.234737
540.132	0.234786
543.25	0.234835
546.387	0.234884
549.541	0.234934
552.713	0.234983
555.904	0.235032
559.114	0.235081
562.341	0.23513
565.588	0.235179
568.853	0.235228
572.137	0.235277
575.44	0.235327
578.762	0.235376
582.103	0.235425
585.464	0.235474
588.844	0.235523
592.243	0.235572
595.662	0.235621
599.101	0.23567
602.56	0.23572
606.038	0.235769
609.537	0.235818
613.056	0.235867
616.595	0.235916
620.155	0.235965
623.735	0.236014
627.336	0.236063
630.957	0.236113
634.6	0.236162
638.263	0.236211
641.948	0.23626
645.654	0.236309
649.382	0.236358
653.131	0.236407
656.901	0.236456
660.693	0.236506
664.508	0.236555
668.344	0.236604
672.202	0.236653
676.083	0.236702
679.986	0.236751
683.912	0.2368
687.86	0.236849
691.831	0.236899
695.825	0.236948
699.842	0.236997
703.882	0.237046
707.946	0.237095
712.033	0.237144
716.143	0.237193
720.278	0.237242
724.436	0.237291
728.618	0.237341
732.825	0.23739
737.055	0.237439
741.31	0.237488
745.59	0.237537
749.894	0.237586
754.223	0.237635
758.578	0.237684
762.957	0.237733
767.361	0.237783
771.792	0.237832
776.247	0.237881
780.728	0.23793
785.236	0.237979
789.769	0.238028
794.328	0.238077
798.914	0.238126
803.526	0.238175
808.165	0.238225
812.831	0.238274
817.523	0.238323
822.243	0.238372
826.99	0.238421
831.764	0.23847
836.566	0.238519
841.395	0.238568
846.253	0.238617
851.138	0.238667
856.052	0.238716
860.994	0.238765
865.964	0.238814
870.964	0.238863
875.992	0.238912
881.049	0.238961
886.135	0.23901
891.251	0.239059
896.396	0.239109
901.571	0.239158
906.776	0.239207
912.011	0.239256
917.276	0.239305
922.571	0.239354
927.897	0.239403
933.254	0.239452
938.642	0.239501
944.061	0.23955
949.511	0.2396
954.993	0.239649
960.506	0.239698
966.051	0.239747
971.628	0.239796
977.237	0.239845
982.879	0.239894
988.553	0.239943
994.26	0.239992
1000	0.240041
1005.77	0.240091
1011.58	0.24014
1017.42	0.240189
1023.29	0.240238
1029.2	0.240287
1035.14	0.240336
1041.12	0.240385
1047.13	0.240434
1053.17	0.240483
1059.25	0.240532
1065.37	0.240582
1071.52	0.240631
1077.71	0.24068
1083.93	0.240729
1090.18	0.240778
1096.48	0.240827
1102.81	0.240876
1109.17	0.240925
1115.58	0.240974
1122.02	0.241023
1128.5	0.241073
1135.01	0.241122
1141.56	0.241171
1148.15	0.24122
1154.78	0.241269
1161.45	0.241318
1168.15	0.241367
1174.9	0.241416
1181.68	0.241465
1188.5	0.241514
1195.36	0.241563
1202.26	0.241613
1209.21	0.241662
1216.19	0.241711
1223.21	0.24176
1230.27	0.241809
1237.37	0.241858
1244.51	0.241907
1251.7	0.241956
1258.93	0.242005
1266.19	0.242054
1273.5	0.242103
1280.86	0.242153
1288.25	0.242202
1295.69	0.242251
1303.17	0.2423
1310.69	0.242349
1318.26	0.242398
1325.87	0.242447
1333.52	0.242496
1341.22	0.242545
1348.96	0.242594
1356.75	0.242643
1364.58	0.242693
1372.46	0.242742
1380.38	0.242791
1388.35	0.24284
1396.37	0.242889
1404.43	0.242938
1412.54	0.242987
1420.69	0.243036
1428.89	0.243085
1437.14	0.243134
1445.44	0.243183
1453.78	0.243233
1462.18	0.243282
1470.62	0.243331
1479.11	0.24338
1487.65	0.243429
1496.24	0.243478
1504.87	0.243527
1513.56	0.243576
1522.3	0.243625
1531.09	0.243674
1539.93	0.243723
1548.82	0.243773
1557.76	0.243822
1566.75	0.243871
1575.8	0.24392
1584.89	0.243969
1594.04	0.244018
1603.25	0.244067
1612.5	0.244116
1621.81	0.244165
1631.17	0.244214
1640.59	0.244263
1650.06	0.244312
1659.59	0.244362
1669.17	0.244411
1678.8	0.24446
1688.5	0.244509
1698.24	0.244558
1708.05	0.244607
1717.91	0.244656
1727.83	0.244705
1737.8	0.244754
1747.83	0.244803
1757.92	0.244852
1768.07	0.244901
1778.28	0.244951
1788.55	0.245
1798.87	0.245049
1809.26	0.245098
1819.7	0.245147
1830.21	0.245196
1840.77	0.245245
1851.4	0.245294
1862.09	0.245343
1872.84	0.245392
1883.65	0.245441
1894.52	0.24549
1905.46	0.24554
1916.46	0.245589
1927.52	0.245638
1938.65	0.245687
1949.84	0.245736
1961.1	0.245785
1972.42	0.245834
1983.81	0.245883
1995.26	0.245932
2006.78	0.245981
2018.37	0.24603
2030.02	0.246079
2041.74	0.246129
2053.53	0.246178
2065.38	0.246227
2077.3	0.246276
2089.3	0.246325
2101.36	0.246374
2113.49	0.246423
2125.69	0.246472
2137.96	0.246521
2150.3	0.24657
2162.72	0.246619
2175.2	0.246668
2187.76	0.246717
2200.39	0.246767
2213.09	0.246816
2225.87	0.246865
2238.72	0.246914
2251.65	0.246963
2264.64	0.247012
2277.72	0.247061
2290.87	0.24711
2304.09	0.247159
2317.39	0.247208
2330.77	0.247257
2344.23	0.247306
2357.76	0.247355
2371.37	0.247405
2385.06	0.247454
2398.83	0.247503
2412.68	0.247552
2426.61	0.247601
2440.62	0.24765
2454.71	0.247699
2468.88	0.247748
2483.13	0.247797
2497.47	0.247846
2511.89	0.247895
2526.39	0.247944
2540.97	0.247993
2555.64	0.248043
2570.4	0.248092
2585.23	0.248141
2600.16	0.24819
2615.17	0.248239
2630.27	0.248288
2645.45	0.248337
2660.73	0.248386
2676.09	0.248435
2691.53	0.248484
2707.07	0.248533
2722.7	0.248582
2738.42	0.248631
2754.23	0.248681
2770.13	0.24873
2786.12	0.248779
2802.21	0.248828
2818.38	0.248877
2834.65	0.248926
2851.02	0.248975
2867.48	0.249024
2884.03	0.249073
2900.68	0.249122
2917.43	0.249171
2934.27	0.24922
2951.21	0.249269
2968.25	0.249319
2985.38	0.249368
3002.62	0.249417
3019.95	0.249466
3037.39	0.249515
3054.92	0.249564
3072.56	0.249613
3090.3	0.249662
3108.14	0.249711
3126.08	0.24976
3144.13	0.249809
3162.28	0.249858
3180.53	0.249907
3198.9	0.249956
3217.36	0.250006
3235.94	0.250055
3254.62	0.250104
3273.41	0.250153
3292.3	0.250202
3311.31	0.250251
3330.43	0.2503
3349.65	0.250349
3368.99	0.250398
3388.44	0.250447
3408	0.250496
3427.68	0.250545
3447.47	0.250594
3467.37	0.250643
3487.39	0.250693
3507.52	0.250742
3527.77	0.250791
3548.13	0.25084
3568.62	0.250889
3589.22	0.250938
3609.94	0.250987
3630.78	0.251036
3651.74	0.251085
3672.82	0.251134
3694.03	0.251183
3715.35	0.251232
3736.8	0.251281
3758.37	0.25133
3780.07	0.25138
3801.89	0.251429
3823.84	0.251478
3845.92	0.251527
3868.12	0.251576
3890.45	0.251625
3912.91	0.251674
3935.5	0.251723
3958.22	0.251772
3981.07	0.251821
4004.05	0.25187
4027.17	0.251919
4050.42	0.251968
4073.8	0.252017
4097.32	0.252067
4120.98	0.252116
4144.77	0.252165
4168.69	0.252214
4192.76	0.252263
4216.97	0.252312
4241.31	0.252361
4265.8	0.25241
4290.42	0.252459
4315.19	0.252508
4340.1	0.252557
4365.16	0.252606
4390.36	0.252655
4415.7	0.252704
4441.2	0.252754
4466.84	0.252803
4492.62	0.252852
4518.56	0.252901
4544.65	0.25295
4570.88	0.252999
4597.27	0.253048
4623.81	0.253097
4650.5	0.253146
4677.35	0.253195
4704.35	0.253244
4731.51	0.253293
4758.83	0.253342
4786.3	0.253391
4813.93	0.25344
4841.72	0.25349
4869.68	0.253539
4897.79	0.253588
4926.06	0.253637
4954.5	0.253686
4983.1	0.253735
5011.87	0.253784
5040.81	0.253833
5069.91	0.253882
5099.18	0.253931
5128.61	0.25398
5158.22	0.254029
5188	0.254078
5217.95	0.254127
5248.07	0.254177
5278.37	0.254226
5308.84	0.254275
5339.49	0.254324
5370.32	0.254373
5401.32	0.254422
5432.5	0.254471
5463.87	0.25452
5495.41	0.254569
5527.13	0.254618
5559.04	0.254667
5591.14	0.254716
5623.41	0.254765
5655.88	0.254814
5688.53	0.254863
5721.37	0.254913
5754.4	0.254962
5787.62	0.255011
5821.03	0.25506
5854.64	0.255109
5888.44	0.255158
5922.43	0.255207
5956.62	0.255256
5991.01	0.255305
6025.6	0.255354
6060.38	0.255403
6095.37	0.255452
6130.56	0.255501
6165.95	0.25555
6201.55	0.255599
6237.35	0.255649
6273.36	0.255698
6309.57	0.255747
6346	0.255796
6382.63	0.255845
6419.48	0.255894
6456.54	0.255943
6493.82	0.255992
6531.31	0.256041
6569.01	0.25609
6606.93	0.256139
6645.08	0.256188
6683.44	0.256237
6722.02	0.256286
6760.83	0.256335
6799.86	0.256385
6839.12	0.256434
6878.6	0.256483
6918.31	0.256532
6958.25	0.256581
6998.42	0.25663
7038.82	0.256679
7079.46	0.256728
7120.33	0.256777
7161.43	0.256826
7202.78	0.256875
7244.36	0.256924
7286.18	0.256973
7328.25	0.257022
7370.55	0.257071
7413.1	0.257121
7455.9	0.25717
7498.94	0.257219
7542.23	0.257268
7585.78	0.257317
7629.57	0.257366
7673.61	0.257415
7717.92	0.257464
7762.47	0.257513
7807.28	0.257562
7852.36	0.257611
7897.69	0.25766
7943.28	0.257709
7989.14	0.257758
8035.26	0.257807
8081.65	0.257856
8128.31	0.257906
8175.23	0.257955
8222.43	0.258004
8269.9	0.258053
8317.64	0.258102
8365.66	0.258151
8413.95	0.2582
8462.53	0.258249
8511.38	0.258298
8560.52	0.258347
8609.94	0.258396
8659.64	0.258445
8709.64	0.258494
8759.92	0.258543
8810.49	0.258592
8861.35	0.258642
8912.51	0.258691
8963.96	0.25874
9015.71	0.258789
9067.76	0.258838
9120.11	0.258887
9172.76	0.258936
9225.71	0.258985
9278.97	0.259034
9332.54	0.259083
9386.42	0.259132
9440.61	0.259181
9495.11	0.25923
9549.93	0.259279
9605.06	0.259328
9660.51	0.259378
9716.28	0.259427
9772.37	0.259476
9828.79	0.259525
9885.53	0.259574
9942.6	0.259623
10000	0.259672
10057.7	0.259721
10115.8	0.25977
10174.2	0.259819
10232.9	0.259868
10292	0.259917
10351.4	0.259966
10411.2	0.260015
10471.3	0.260064
10531.7	0.260113
10592.5	0.260163
10653.7	0.260212
10715.2	0.260261
10777.1	0.26031
10839.3	0.260359
10901.8	0.260408
10964.8	0.260457
11028.1	0.260506
11091.7	0.260555
11155.8	0.260604
11220.2	0.260653
11285	0.260702
11350.1	0.260751
11415.6	0.2608
11481.5	0.260849
11547.8	0.260898
11614.5	0.260948
11681.5	0.260997
11749	0.261046
11816.8	0.261095
11885	0.261144
11953.6	0.261193
12022.6	0.261242
12092.1	0.261291
12161.9	0.26134
12232.1	0.261389
12302.7	0.261438
12373.7	0.261487
12445.1	0.261536
12517	0.261585
12589.3	0.261634
12661.9	0.261684
12735	0.261733
12808.6	0.261782
12882.5	0.261831
12956.9	0.26188
13031.7	0.261929
13106.9	0.261978
13182.6	0.262027
13258.7	0.262076
13335.2	0.262125
13412.2	0.262174
13489.6	0.262223
13567.5	0.262272
13645.8	0.262321
13724.6	0.26237
13803.8	0.262419
13883.5	0.262469
13963.7	0.262518
14044.3	0.262567
14125.4	0.262616
14206.9	0.262665
14288.9	0.262714
14371.4	0.262763
14454.4	0.262812
14537.8	0.262861
14621.8	0.26291
14706.2	0.262959
14791.1	0.263008
14876.5	0.263057
14962.4	0.263106
15048.7	0.263155
15135.6	0.263204
15223	0.263254
15310.9	0.263303
15399.3	0.263352
15488.2	0.263401
15577.6	0.26345
15667.5	0.263499
15758	0.263548
15848.9	0.263597
15940.4	0.263646
16032.5	0.263695
16125	0.263744
16218.1	0.263793
16311.7	0.263842
16405.9	0.263891
16500.6	0.26394
16595.9	0.263989
16691.7	0.264039
16788	0.264088
16885	0.264137
16982.4	0.264186
17080.5	0.264235
17179.1	0.264284
17278.3	0.264333
17378	0.264382
17478.3	0.264431
17579.2	0.26448
17680.7	0.264529
17782.8	0.264578
17885.5	0.264627
17988.7	0.264676
18092.6	0.264725
18197	0.264774
18302.1	0.264824
18407.7	0.264873
18514	0.264922
18620.9	0.264971
18728.4	0.26502
18836.5	0.265069
18945.2	0.265118
19054.6	0.265167
19164.6	0.265216
19275.2	0.265265
19386.5	0.265314
19498.4	0.265363
19611	0.265412
19724.2	0.265461
19838.1	0.26551
19952.6	0.265559
20067.8	0.265609
20183.7	0.265658
20300.2	0.265707
20417.4	0.265756
20535.3	0.265805
20653.8	0.265854
20773	0.265903
20893	0.265952
21013.6	0.266001
21134.9	0.26605
21256.9	0.266099
21379.6	0.266148
21503	0.266197
21627.2	0.266246
21752	0.266295
21877.6	0.266344
22003.9	0.266394
22130.9	0.266443
22258.7	0.266492
22387.2	0.266541
22516.5	0.26659
22646.4	0.266639
22777.2	0.266688
22908.7	0.266737
23040.9	0.266786
23173.9	0.266835
23307.7	0.266884
23442.3	0.266933
23577.6	0.266982
23713.7	0.267031
23850.6	0.26708
23988.3	0.267129
24126.8	0.267179
24266.1	0.267228
24406.2	0.267277
24547.1	0.267326
24688.8	0.267375
24831.3	0.267424
24974.7	0.267473
25118.9	0.267522
25263.9	0.267571
25409.7	0.26762
25556.4	0.267669
25704	0.267718
25852.3	0.267767
26001.6	0.267816
26151.7	0.267865
26302.7	0.267914
26454.5	0.267964
26607.3	0.268013
26760.9	0.268062
26915.3	0.268111
27070.7	0.26816
27227	0.268209
27384.2	0.268258
27542.3	0.268307
27701.3	0.268356
27861.2	0.268405
28022.1	0.268454
28183.8	0.268503
28346.5	0.268552
28510.2	0.268601
28674.8	0.26865
28840.3	0.268699
29006.8	0.268748
29174.3	0.268798
29342.7	0.268847
29512.1	0.268896
29682.5	0.268945
29853.8	0.268994
30026.2	0.269043
30199.5	0.269092
30373.9	0.269141
30549.2	0.26919
30725.6	0.269239
30903	0.269288
31081.4	0.269337
31260.8	0.269386
31441.3	0.269435
31622.8	0.269484
31805.3	0.269533
31989	0.269583
32173.6	0.269632
32359.4	0.269681
32546.2	0.26973
32734.1	0.269779
32923	0.269828
33113.1	0.269877
33304.3	0.269926
33496.5	0.269975
33689.9	0.270024
33884.4	0.270073
34080	0.270122
34276.8	0.270171
34474.7	0.27022
34673.7	0.270269
34873.9	0.270318
35075.2	0.270368
35277.7	0.270417
35481.3	0.270466
35686.2	0.270515
35892.2	0.270564
36099.4	0.270613
36307.8	0.270662
36517.4	0.270711
36728.2	0.27076
36940.3	0.270809
37153.5	0.270858
37368	0.270907
37583.7	0.270956
37800.7	0.271005
38018.9	0.271054
38238.4	0.271103
38459.2	0.271153
38681.2	0.271202
38904.5	0.271251
39129.1	0.2713
39355	0.271349
39582.2	0.271398
39810.7	0.271447
40040.5	0.271496
40271.7	0.271545
40504.2	0.271594
40738	0.271643
40973.2	0.271692
41209.8	0.271741
41447.7	0.27179
41686.9	0.271839
41927.6	0.271888
42169.7	0.271937
42413.1	0.271987
42658	0.272036
42904.2	0.272085
43151.9	0.272134
43401	0.272183
43651.6	0.272232
43903.6	0.272281
44157	0.27233
44412	0.272379
44668.4	0.272428
44926.2	0.272477
45185.6	0.272526
45446.5	0.272575
45708.8	0.272624
45972.7	0.272673
46238.1	0.272722
46505	0.272772
46773.5	0.272821
47043.5	0.27287
47315.1	0.272919
47588.3	0.272968
47863	0.273017
48139.3	0.273066
48417.2	0.273115
48696.8	0.273164
48977.9	0.273213
49260.6	0.273262
49545	0.273311
49831	0.27336
50118.7	0.273409
50408.1	0.273458
50699.1	0.273507
50991.8	0.273556
51286.1	0.273606
51582.2	0.273655
51880	0.273704
52179.5	0.273753
52480.7	0.273802
52783.7	0.273851
53088.4	0.2739
53394.9	0.273949
53703.2	0.273998
54013.2	0.274047
54325	0.274096
54638.7	0.274145
54954.1	0.274194
55271.3	0.274243
55590.4	0.274292
55911.4	0.274341
56234.1	0.274391
56558.8	0.27444
56885.3	0.274489
57213.7	0.274538
57544	0.274587
57876.2	0.274636
58210.3	0.274685
58546.4	0.274734
58884.4	0.274783
59224.3	0.274832
59566.2	0.274881
59910.1	0.27493
60256	0.274979
60603.8	0.275028
60953.7	0.275077
61305.6	0.275126
61659.5	0.275176
62015.5	0.275225
62373.5	0.275274
62733.6	0.275323
63095.7	0.275372
63460	0.275421
63826.3	0.27547
64194.8	0.275519
64565.4	0.275568
64938.2	0.275617
65313.1	0.275666
65690.1	0.275715
66069.3	0.275764
66450.8	0.275813
66834.4	0.275862
67220.2	0.275911
67608.3	0.27596
67998.6	0.27601
68391.2	0.276059
68786	0.276108
69183.1	0.276157
69582.5	0.276206
69984.2	0.276255
70388.2	0.276304
70794.6	0.276353
71203.3	0.276402
71614.3	0.276451
72027.8	0.2765
72443.6	0.276549
72861.8	0.276598
73282.5	0.276647
73705.5	0.276696
74131	0.276745
74559	0.276795
74989.4	0.276844
75422.3	0.276893
75857.8	0.276942
76295.7	0.276991
76736.1	0.27704
77179.2	0.277089
77624.7	0.277138
78072.8	0.277187
78523.6	0.277236
78976.9	0.277285
79432.8	0.277334
79891.4	0.277383
80352.6	0.277432
80816.5	0.277481
81283.1	0.27753
81752.3	0.277579
82224.3	0.277629
82699	0.277678
83176.4	0.277727
83656.6	0.277776
84139.5	0.277825
84625.3	0.277874
85113.8	0.277923
85605.2	0.277972
86099.4	0.278021
86596.4	0.27807
87096.4	0.278119
87599.2	0.278168
88104.9	0.278217
88613.5	0.278266
89125.1	0.278315
89639.6	0.278364
90157.1	0.278414
90677.6	0.278463
91201.1	0.278512
91727.6	0.278561
92257.1	0.27861
92789.7	0.278659
93325.4	0.278708
93864.2	0.278757
94406.1	0.278806
94951.1	0.278855
95499.3	0.278904
96050.6	0.278953
96605.1	0.279002
97162.8	0.279051
97723.7	0.2791
98287.9	0.279149
98855.3	0.279198
99426	0.279248
100000	0.279297
100577	0.279346
101158	0.279395
101742	0.279444
102329	0.279493
102920	0.279542
103514	0.279591
104112	0.27964
104713	0.279689
105317	0.279738
105925	0.279787
106537	0.279836
107152	0.279885
107771	0.279934
108393	0.279983
109018	0.280033
109648	0.280082
110281	0.280131
110917	0.28018
111558	0.280229
112202	0.280278
112850	0.280327
113501	0.280376
114156	0.280425
114815	0.280474
115478	0.280523
116145	0.280572
116815	0.280621
117490	0.28067
118168	0.280719
118850	0.280768
119536	0.280817
120226	0.280867
120921	0.280916
121619	0.280965
122321	0.281014
123027	0.281063
123737	0.281112
124451	0.281161
125170	0.28121
125893	0.281259
126619	0.281308
127350	0.281357
128086	0.281406
128825	0.281455
129569	0.281504
130317	0.281553
131069	0.281602
131826	0.281652
132587	0.281701
133352	0.28175
134122	0.281799
134896	0.281848
135675	0.281897
136458	0.281946
137246	0.281995
138038	0.282044
138835	0.282093
139637	0.282142
140443	0.282191
141254	0.28224
142069	0.282289
142889	0.282338
143714	0.282387
144544	0.282436
145378	0.282486
146218	0.282535
147062	0.282584
147911	0.282633
148765	0.282682
149624	0.282731
150487	0.28278
151356	0.282829
152230	0.282878
153109	0.282927
153993	0.282976
154882	0.283025
155776	0.283074
156675	0.283123
157580	0.283172
158489	0.283221
159404	0.283271
160325	0.28332
161250	0.283369
162181	0.283418
163117	0.283467
164059	0.283516
165006	0.283565
165959	0.283614
166917	0.283663
167880	0.283712
168850	0.283761
169824	0.28381
170805	0.283859
171791	0.283908
172783	0.283957
173780	0.284006
174783	0.284055
175792	0.284105
176807	0.284154
177828	0.284203
178855	0.284252
179887	0.284301
180926	0.28435
181970	0.284399
183021	0.284448
184077	0.284497
185140	0.284546
186209	0.284595
187284	0.284644
188365	0.284693
189452	0.284742
190546	0.284791
191646	0.28484
192752	0.28489
193865	0.284939
194984	0.284988
196110	0.285037
197242	0.285086
198381	0.285135
199526	0.285184
200678	0.285233
201837	0.285282
203002	0.285331
204174	0.28538
205353	0.285429
206538	0.285478
207730	0.285527
208930	0.285576
210136	0.285625
211349	0.285674
212569	0.285724
213796	0.285773
215030	0.285822
216272	0.285871
217520	0.28592
218776	0.285969
220039	0.286018
221309	0.286067
222587	0.286116
223872	0.286165
225165	0.286214
226464	0.286263
227772	0.286312
229087	0.286361
230409	0.28641
231739	0.286459
233077	0.286508
234423	0.286558
235776	0.286607
237137	0.286656
238506	0.286705
239883	0.286754
241268	0.286803
242661	0.286852
244062	0.286901
245471	0.28695
246888	0.286999
248313	0.287048
249747	0.287097
251189	0.287146
252639	0.287195
254097	0.287244
255564	0.287293
257040	0.287343
258523	0.287392
260016	0.287441
261517	0.28749
263027	0.287539
264545	0.287588
266073	0.287637
267609	0.287686
269153	0.287735
270707	0.287784
272270	0.287833
273842	0.287882
275423	0.287931
277013	0.28798
278612	0.288029
280221	0.288078
281838	0.288127
283465	0.288177
285102	0.288226
286748	0.288275
288403	0.288324
290068	0.288373
291743	0.288422
293427	0.288471
295121	0.28852
296825	0.288569
298538	0.288618
300262	0.288667
301995	0.288716
303739	0.288765
305492	0.288814
307256	0.288863
309030	0.288912
310814	0.288962
312608	0.289011
314413	0.28906
316228	0.289109
318053	0.289158
319890	0.289207
321736	0.289256
323594	0.289305
325462	0.289354
327341	0.289403
329230	0.289452
331131	0.289501
333043	0.28955
334965	0.289599
336899	0.289648
338844	0.289697
340800	0.289746
342768	0.289796
344747	0.289845
346737	0.289894
348739	0.289943
350752	0.289992
352777	0.290041
354813	0.29009
356862	0.290139
358922	0.290188
360994	0.290237
363078	0.290286
365174	0.290335
367282	0.290384
369403	0.290433
371535	0.290482
373680	0.290531
375837	0.290581
378007	0.29063
380189	0.290679
382384	0.290728
384592	0.290777
386812	0.290826
389045	0.290875
391291	0.290924
393550	0.290973
395822	0.291022
398107	0.291071
400405	0.29112
402717	0.291169
405042	0.291218
407380	0.291267
409732	0.291316
412098	0.291365
414477	0.291415
416869	0.291464
419276	0.291513
421697	0.291562
424131	0.291611
426580	0.29166
429042	0.291709
431519	0.291758
434010	0.291807
436516	0.291856
439036	0.291905
441570	0.291954
444120	0.292003
446684	0.292052
449262	0.292101
451856	0.29215
454465	0.292199
457088	0.292249
459727	0.292298
462381	0.292347
465050	0.292396
467735	0.292445
470435	0.292494
473151	0.292543
475883	0.292592
478630	0.292641
481393	0.29269
484172	0.292739
486968	0.292788
489779	0.292837
492606	0.292886
495450	0.292935
498310	0.292984
501187	0.293034
504081	0.293083
506991	0.293132
509918	0.293181
512861	0.29323
515822	0.293279
518800	0.293328
521795	0.293377
524807	0.293426
527837	0.293475
530884	0.293524
533949	0.293573
537032	0.293622
540132	0.293671
543250	0.29372
546387	0.293769
549541	0.293818
552713	0.293868
555904	0.293917
559114	0.293966
562341	0.294015
565588	0.294064
568853	0.294113
572137	0.294162
575440	0.294211
578762	0.29426
582103	0.294309
585464	0.294358
588844	0.294407
592243	0.294456
595662	0.294505
599101	0.294554
602560	0.294603
606038	0.294653
609537	0.294702
613056	0.294751
616595	0.2948
620155	0.294849
623735	0.294898
627336	0.294947
630957	0.294996
634600	0.295045
638263	0.295094
641948	0.295143
645654	0.295192
649382	0.295241
653131	0.29529
656901	0.295339
660693	0.295388
664508	0.295437
668344	0.295487
672202	0.295536
676083	0.295585
679986	0.295634
683912	0.295683
687860	0.295732
691831	0.295781
695825	0.29583
699842	0.295879
703882	0.295928
707946	0.295977
712033	0.296026
716143	0.296075
720278	0.296124
724436	0.296173
728618	0.296222
732825	0.296271
737055	0.296321
741310	0.29637
745590	0.296419
749894	0.296468
754223	0.296517
758578	0.296566
762957	0.296615
767361	0.296664
771792	0.296713
776247	0.296762
780728	0.296811
785236	0.29686
789769	0.296909
794328	0.296958
798914	0.297007
803526	0.297056
808165	0.297106
812831	0.297155
817523	0.297204
822243	0.297253
826990	0.297302
831764	0.297351
836566	0.2974
841395	0.297449
846253	0.297498
851138	0.297547
856052	0.297596
860994	0.297645
865964	0.297694
870964	0.297743
875992	0.297792
881049	0.297841
886135	0.29789
891251	0.29794
896396	0.297989
901571	0.298038
906776	0.298087
912011	0.298136
917276	0.298185
922571	0.298234
927897	0.298283
933254	0.298332
938642	0.298381
944061	0.29843
949511	0.298479
954993	0.298528
960506	0.298577
966051	0.298626
971628	0.298675
977237	0.298725
982879	0.298774
988553	0.298823
994260	0.298872
1e+06	0.298921
1.00577e+06	0.29897
1.01158e+06	0.299019
1.01742e+06	0.299068
1.02329e+06	0.299117
1.0292e+06	0.299166
1.03514e+06	0.299215
1.04112e+06	0.299264
1.04713e+06	0.299313
1.05317e+06	0.299362
1.05925e+06	0.299411
1.06537e+06	0.29946
1.07152e+06	0.299509
1.07771e+06	0.299559
1.08393e+06	0.299608
1.09018e+06	0.299657
1.09648e+06	0.299706
1.10281e+06	0.299755
1.10917e+06	0.299804
1.11558e+06	0.299853
1.12202e+06	0.299902
1.1285e+06	0.299951
1.13501e+06	0.3
1.14156e+06	0.300049
1.14815e+06	0.300098
1.15478e+06	0.300147
1.16145e+06	0.300196
1.16815e+06	0.300245
1.1749e+06	0.300294
1.18168e+06	0.300343
1.1885e+06	0.300393
1.19536e+06	0.300442
1.20226e+06	0.300491
1.20921e+06	0.30054
1.21619e+06	0.300589
1.22321e+06	0.300638
1.23027e+06	0.300687
1.23737e+06	0.300736
1.24451e+06	0.300785
1.2517e+06	0.300834
1.25893e+06	0.300883
1.26619e+06	0.300932
1.2735e+06	0.300981
1.28086e+06	0.30103
1.28825e+06	0.301079
1.29569e+06	0.301128
1.30317e+06	0.301178
1.31069e+06	0.301227
1.31826e+06	0.301276
1.32587e+06	0.301325
1.33352e+06	0.301374
1.34122e+06	0.301423
1.34896e+06	0.301472
1.35675e+06	0.301521
1.36458e+06	0.30157
1.37246e+06	0.301619
1.38038e+06	0.301668
1.38835e+06	0.301717
1.39637e+06	0.301766
1.40443e+06	0.301815
1.41254e+06	0.301864
1.42069e+06	0.301913
1.42889e+06	0.301962
1.43714e+06	0.302012
1.44544e+06	0.302061
1.45378e+06	0.30211
1.46218e+06	0.302159
1.47062e+06	0.302208
1.47911e+06	0.302257
1.48765e+06	0.302306
1.49624e+06	0.302355
1.50487e+06	0.302404
1.51356e+06	0.302453
1.5223e+06	0.302502
1.53109e+06	0.302551
1.53993e+06	0.3026
1.54882e+06	0.302649
1.55776e+06	0.302698
1.56675e+06	0.302747
1.5758e+06	0.302797
1.58489e+06	0.302846
1.59404e+06	0.302895
1.60325e+06	0.302944
1.6125e+06	0.302993
1.62181e+06	0.303042
1.63117e+06	0.303091
1.64059e+06	0.30314
1.65006e+06	0.303189
1.65959e+06	0.303238
1.66917e+06	0.303287
1.6788e+06	0.303336
1.6885e+06	0.303385
1.69824e+06	0.303434
1.70805e+06	0.303483
1.71791e+06	0.303532
1.72783e+06	0.303581
1.7378e+06	0.303631
1.74783e+06	0.30368
1.75792e+06	0.303729
1.76807e+06	0.303778
1.77828e+06	0.303827
1.78855e+06	0.303876
1.79887e+06	0.303925
1.80926e+06	0.303974
1.8197e+06	0.304023
1.83021e+06	0.304072
1.84077e+06	0.304121
1.8514e+06	0.30417
1.86209e+06	0.304219
1.87284e+06	0.304268
1.88365e+06	0.304317
1.89452e+06	0.304366
1.90546e+06	0.304415
1.91646e+06	0.304465
1.92752e+06	0.304514
1.93865e+06	0.304563
1.94984e+06	0.304612
1.9611e+06	0.304661
1.97242e+06	0.30471
1.98381e+06	0.304759
1.99526e+06	0.304808
2.00678e+06	0.304857
2.01837e+06	0.304906
2.03002e+06	0.304955
2.04174e+06	0.305004
2.05353e+06	0.305053
2.06538e+06	0.305102
2.0773e+06	0.305151
2.0893e+06	0.3052
2.10136e+06	0.30525
2.11349e+06	0.305299
2.12569e+06	0.305348
2.13796e+06	0.305397
2.1503e+06	0.305446
2.16272e+06	0.305495
2.1752e+06	0.305544
2.18776e+06	0.305593
2.20039e+06	0.305642
2.21309e+06	0.305691
2.22587e+06	0.30574
2.23872e+06	0.305789
2.25165e+06	0.305838
2.26464e+06	0.305887
2.27772e+06	0.305936
2.29087e+06	0.305985
2.30409e+06	0.306034
2.31739e+06	0.306084
2.33077e+06	0.306133
2.34423e+06	0.306182
2.35776e+06	0.306231
2.37137e+06	0.30628
2.38506e+06	0.306329
2.39883e+06	0.306378
2.41268e+06	0.306427
2.42661e+06	0.306476
2.44062e+06	0.306525
2.45471e+06	0.306574
2.46888e+06	0.306623
2.48313e+06	0.306672
2.49747e+06	0.306721
2.51189e+06	0.30677
2.52639e+06	0.306819
2.54097e+06	0.306869
2.55564e+06	0.306918
2.5704e+06	0.306967
2.58523e+06	0.307016
2.60016e+06	0.307065
2.61517e+06	0.307114
2.63027e+06	0.307163
2.64545e+06	0.307212
2.66073e+06	0.307261
2.67609e+06	0.30731
2.69153e+06	0.307359
2.70707e+06	0.307408
2.7227e+06	0.307457
2.73842e+06	0.307506
2.75423e+06	0.307555
2.77013e+06	0.307604
2.78612e+06	0.307653
2.80221e+06	0.307703
2.81838e+06	0.307752
2.83465e+06	0.307801
2.85102e+06	0.30785
2.86748e+06	0.307899
2.88403e+06	0.307948
2.90068e+06	0.307997
2.91743e+06	0.308046
2.93427e+06	0.308095
2.95121e+06	0.308144
2.96825e+06	0.308193
2.98538e+06	0.308242
3.00262e+06	0.308291
3.01995e+06	0.30834
3.03739e+06	0.308389
3.05492e+06	0.308438
3.07256e+06	0.308487
3.0903e+06	0.308537
3.10814e+06	0.308586
3.12608e+06	0.308635
3.14413e+06	0.308684
3.16228e+06	0.308733
3.18053e+06	0.308782
3.1989e+06	0.308831
3.21736e+06	0.30888
3.23594e+06	0.308929
3.25462e+06	0.308978
3.27341e+06	0.309027
3.2923e+06	0.309076
3.31131e+06	0.309125
3.33043e+06	0.309174
3.34965e+06	0.309223
3.36899e+06	0.309272
3.38844e+06	0.309322
3.408e+06	0.309371
3.42768e+06	0.30942
3.44747e+06	0.309469
3.46737e+06	0.309518
3.48739e+06	0.309567
3.50752e+06	0.309616
3.52777e+06	0.309665
3.54813e+06	0.309714
3.56862e+06	0.309763
3.58922e+06	0.309812
3.60994e+06	0.309861
3.63078e+06	0.30991
3.65174e+06	0.309959
3.67282e+06	0.310008
3.69403e+06	0.310057
3.71535e+06	0.310106
3.7368e+06	0.310156
3.75837e+06	0.310205
3.78007e+06	0.310254
3.80189e+06	0.310303
3.82384e+06	0.310352
3.84592e+06	0.310401
3.86812e+06	0.31045
3.89045e+06	0.310499
3.91291e+06	0.310548
3.9355e+06	0.310597
3.95822e+06	0.310646
3.98107e+06	0.310695
4.00405e+06	0.310744
4.02717e+06	0.310793
4.05042e+06	0.310842
4.0738e+06	0.310891
4.09732e+06	0.310941
4.12098e+06	0.31099
4.14477e+06	0.311039
4.16869e+06	0.311088
4.19276e+06	0.311137
4.21697e+06	0.311186
4.24131e+06	0.311235
4.2658e+06	0.311284
4.29042e+06	0.311333
4.31519e+06	0.311382
4.3401e+06	0.311431
4.36516e+06	0.31148
4.39036e+06	0.311529
4.4157e+06	0.311578
4.4412e+06	0.311627
4.46684e+06	0.311676
4.49262e+06	0.311725
4.51856e+06	0.311775
4.54465e+06	0.311824
4.57088e+06	0.311873
4.59727e+06	0.311922
4.62381e+06	0.311971
4.6505e+06	0.31202
4.67735e+06	0.312069
4.70435e+06	0.312118
4.73151e+06	0.312167
4.75883e+06	0.312216
4.7863e+06	0.312265
4.81393e+06	0.312314
4.84172e+06	0.312363
4.86968e+06	0.312412
4.89779e+06	0.312461
4.92606e+06	0.31251
4.9545e+06	0.312559
4.9831e+06	0.312609
5.01187e+06	0.312658
5.04081e+06	0.312707
5.06991e+06	0.312756
5.09918e+06	0.312805
5.12861e+06	0.312854
5.15822e+06	0.312903
5.188e+06	0.312952
5.21795e+06	0.313001
5.24807e+06	0.31305
5.27837e+06	0.313099
5.30884e+06	0.313148
5.33949e+06	0.313197
5.37032e+06	0.313246
5.40132e+06	0.313295
5.4325e+06	0.313344
5.46387e+06	0.313394
5.49541e+06	0.313443
5.52713e+06	0.313492
5.55904e+06	0.313541
5.59114e+06	0.31359
5.62341e+06	0.313639
5.65588e+06	0.313688
5.68853e+06	0.313737
5.72137e+06	0.313786
5.7544e+06	0.313835
5.78762e+06	0.313884
5.82103e+06	0.313933
5.85464e+06	0.313982
5.88844e+06	0.314031
5.92243e+06	0.31408
5.95662e+06	0.314129
5.99101e+06	0.314178
6.0256e+06	0.314228
6.06038e+06	0.314277
6.09537e+06	0.314326
6.13056e+06	0.314375
6.16595e+06	0.314424
6.20155e+06	0.314473
6.23735e+06	0.314522
6.27336e+06	0.314571
6.30957e+06	0.31462
6.346e+06	0.314669
6.38263e+06	0.314718
6.41948e+06	0.314767
6.45654e+06	0.314816
6.49382e+06	0.314865
6.53131e+06	0.314914
6.56901e+06	0.314963
6.60693e+06	0.315012
6.64508e+06	0.315062
6.68344e+06	0.315111
6.72202e+06	0.31516
6.76083e+06	0.315209
6.79986e+06	0.315258
6.83912e+06	0.315307
6.8786e+06	0.315356
6.91831e+06	0.315405
6.95825e+06	0.315454
6.99842e+06	0.315503
7.03882e+06	0.315552
7.07946e+06	0.315601
7.12033e+06	0.31565
7.16143e+06	0.315699
7.20278e+06	0.315748
7.24436e+06	0.315797
7.28618e+06	0.315847
7.32825e+06	0.315896
7.37055e+06	0.315945
7.4131e+06	0.315994
7.4559e+06	0.316043
7.49894e+06	0.316092
7.54223e+06	0.316141
7.58578e+06	0.31619
7.62957e+06	0.316239
7.67361e+06	0.316288
7.71792e+06	0.316337
7.76247e+06	0.316386
7.80728e+06	0.316435
7.85236e+06	0.316484
7.89769e+06	0.316533
7.94328e+06	0.316582
7.98914e+06	0.316631
8.03526e+06	0.316681
8.08165e+06	0.31673
8.12831e+06	0.316779
8.17523e+06	0.316828
8.22243e+06	0.316877
8.2699e+06	0.316926
8.31764e+06	0.316975
8.36566e+06	0.317024
8.41395e+06	0.317073
8.46253e+06	0.317122
8.51138e+06	0.317171
8.56052e+06	0.31722
8.60994e+06	0.317269
8.65964e+06	0.317318
8.70964e+06	0.317367
8.75992e+06	0.317416
8.81049e+06	0.317466
8.86135e+06	0.317515
8.91251e+06	0.317564
8.96396e+06	0.317613
9.01571e+06	0.317662
9.06776e+06	0.317711
9.12011e+06	0.31776
9.17276e+06	0.317809
9.22571e+06	0.317858
9.27897e+06	0.317907
9.33254e+06	0.317956
9.38642e+06	0.318005
9.44061e+06	0.318054
9.49511e+06	0.318103
9.54993e+06	0.318152
9.60506e+06	0.318201
9.66051e+06	0.31825
9.71628e+06	0.3183
9.77237e+06	0.318349
9.82879e+06	0.318398
9.88553e+06	0.318447
9.9426e+06	0.318496
1e+07	0.318545
