Stopping power dEdx from Ionisation for e+ Z = 0 in G4_TISSUE_SOFT_ICRP, process name: eIoni
E [MeV]	dEdx [MeV/mm]
0.001	14.8167
0.00100577	14.7574
0.00101158	14.6982
0.00101742	14.6393
0.00102329	14.5805
0.0010292	14.522
0.00103514	14.4636
0.00104112	14.4054
0.00104713	14.3474
0.00105317	14.2896
0.00105925	14.232
0.00106537	14.1746
0.00107152	14.1174
0.00107771	14.0604
0.00108393	14.0035
0.00109018	13.9469
0.00109648	13.8904
0.00110281	13.8342
0.00110917	13.7781
0.00111558	13.7222
0.00112202	13.6665
0.0011285	13.611
0.00113501	13.5557
0.00114156	13.5006
0.00114815	13.4456
0.00115478	13.3909
0.00116145	13.3363
0.00116815	13.2819
0.0011749	13.2277
0.00118168	13.1737
0.0011885	13.1199
0.00119536	13.0663
0.00120226	13.0128
0.00120921	12.9596
0.00121619	12.9065
0.00122321	12.8536
0.00123027	12.8009
0.00123737	12.7484
0.00124451	12.696
0.0012517	12.6438
0.00125893	12.5919
0.00126619	12.5401
0.0012735	12.4884
0.00128086	12.437
0.00128825	12.3858
0.00129569	12.3347
0.00130317	12.2838
0.00131069	12.2331
0.00131826	12.1825
0.00132587	12.1322
0.00133352	12.082
0.00134122	12.032
0.00134896	11.9822
0.00135675	11.9325
0.00136458	11.883
0.00137246	11.8337
0.00138038	11.7846
0.00138835	11.7357
0.00139637	11.6869
0.00140443	11.6383
0.00141254	11.5899
0.00142069	11.5417
0.00142889	11.4936
0.00143714	11.4457
0.00144544	11.398
0.00145378	11.3504
0.00146218	11.303
0.00147062	11.2558
0.00147911	11.2088
0.00148765	11.1619
0.00149624	11.1152
0.00150487	11.0687
0.00151356	11.0224
0.0015223	10.9762
0.00153109	10.9302
0.00153993	10.8843
0.00154882	10.8386
0.00155776	10.7931
0.00156675	10.7478
0.0015758	10.7026
0.00158489	10.6576
0.00159404	10.6127
0.00160325	10.5681
0.0016125	10.5235
0.00162181	10.4792
0.00163117	10.435
0.00164059	10.391
0.00165006	10.3471
0.00165959	10.3034
0.00166917	10.2599
0.0016788	10.2165
0.0016885	10.1733
0.00169824	10.1303
0.00170805	10.0874
0.00171791	10.0446
0.00172783	10.0021
0.0017378	9.95966
0.00174783	9.91741
0.00175792	9.87532
0.00176807	9.83339
0.00177828	9.79162
0.00178855	9.75
0.00179887	9.70854
0.00180926	9.66723
0.0018197	9.62609
0.00183021	9.5851
0.00184077	9.54426
0.0018514	9.50358
0.00186209	9.46305
0.00187284	9.42268
0.00188365	9.38246
0.00189452	9.34239
0.00190546	9.30248
0.00191646	9.26271
0.00192752	9.2231
0.00193865	9.18365
0.00194984	9.14434
0.0019611	9.10518
0.00197242	9.06617
0.00198381	9.02732
0.00199526	8.98861
0.00200678	8.95005
0.00201837	8.91164
0.00203002	8.87338
0.00204174	8.83526
0.00205353	8.79729
0.00206538	8.75947
0.0020773	8.7218
0.0020893	8.68427
0.00210136	8.64688
0.00211349	8.60964
0.00212569	8.57255
0.00213796	8.5356
0.0021503	8.49879
0.00216272	8.46213
0.0021752	8.42561
0.00218776	8.38923
0.00220039	8.35299
0.00221309	8.3169
0.00222587	8.28094
0.00223872	8.24513
0.00225165	8.20946
0.00226464	8.17392
0.00227772	8.13853
0.00229087	8.10328
0.00230409	8.06816
0.00231739	8.03318
0.00233077	7.99834
0.00234423	7.96364
0.00235776	7.92907
0.00237137	7.89464
0.00238506	7.86035
0.00239883	7.82619
0.00241268	7.79216
0.00242661	7.75828
0.00244062	7.72452
0.00245471	7.6909
0.00246888	7.65741
0.00248313	7.62406
0.00249747	7.59084
0.00251189	7.55775
0.00252639	7.52479
0.00254097	7.49197
0.00255564	7.45927
0.0025704	7.4267
0.00258523	7.39427
0.00260016	7.36196
0.00261517	7.32979
0.00263027	7.29774
0.00264545	7.26582
0.00266073	7.23403
0.00267609	7.20237
0.00269153	7.17083
0.00270707	7.13942
0.0027227	7.10814
0.00273842	7.07698
0.00275423	7.04595
0.00277013	7.01505
0.00278612	6.98427
0.00280221	6.95361
0.00281838	6.92307
0.00283465	6.89266
0.00285102	6.86238
0.00286748	6.83221
0.00288403	6.80217
0.00290068	6.77225
0.00291743	6.74245
0.00293427	6.71277
0.00295121	6.68322
0.00296825	6.65378
0.00298538	6.62446
0.00300262	6.59526
0.00301995	6.56619
0.00303739	6.53723
0.00305492	6.50838
0.00307256	6.47966
0.0030903	6.45105
0.00310814	6.42256
0.00312608	6.39419
0.00314413	6.36593
0.00316228	6.33779
0.00318053	6.30976
0.0031989	6.28185
0.00321736	6.25406
0.00323594	6.22638
0.00325462	6.19881
0.00327341	6.17135
0.0032923	6.14401
0.00331131	6.11678
0.00333043	6.08966
0.00334965	6.06266
0.00336899	6.03577
0.00338844	6.00898
0.003408	5.98231
0.00342768	5.95575
0.00344747	5.9293
0.00346737	5.90296
0.00348739	5.87673
0.00350752	5.8506
0.00352777	5.82459
0.00354813	5.79868
0.00356862	5.77288
0.00358922	5.74719
0.00360994	5.7216
0.00363078	5.69612
0.00365174	5.67075
0.00367282	5.64548
0.00369403	5.62032
0.00371535	5.59526
0.0037368	5.57031
0.00375837	5.54546
0.00378007	5.52072
0.00380189	5.49608
0.00382384	5.47154
0.00384592	5.44711
0.00386812	5.42278
0.00389045	5.39855
0.00391291	5.37442
0.0039355	5.35039
0.00395822	5.32646
0.00398107	5.30264
0.00400405	5.27891
0.00402717	5.25529
0.00405042	5.23176
0.0040738	5.20833
0.00409732	5.18501
0.00412098	5.16178
0.00414477	5.13865
0.00416869	5.11561
0.00419276	5.09267
0.00421697	5.06984
0.00424131	5.04709
0.0042658	5.02445
0.00429042	5.00189
0.00431519	4.97944
0.0043401	4.95708
0.00436516	4.93481
0.00439036	4.91264
0.0044157	4.89057
0.0044412	4.86858
0.00446684	4.8467
0.00449262	4.8249
0.00451856	4.8032
0.00454465	4.78158
0.00457088	4.76007
0.00459727	4.73864
0.00462381	4.7173
0.0046505	4.69606
0.00467735	4.67491
0.00470435	4.65384
0.00473151	4.63287
0.00475883	4.61198
0.0047863	4.59119
0.00481393	4.57048
0.00484172	4.54987
0.00486968	4.52934
0.00489779	4.5089
0.00492606	4.48855
0.0049545	4.46828
0.0049831	4.4481
0.00501187	4.42801
0.00504081	4.40801
0.00506991	4.38809
0.00509918	4.36826
0.00512861	4.34851
0.00515822	4.32885
0.005188	4.30927
0.00521795	4.28977
0.00524807	4.27037
0.00527837	4.25104
0.00530884	4.2318
0.00533949	4.21264
0.00537032	4.19356
0.00540132	4.17457
0.0054325	4.15566
0.00546387	4.13683
0.00549541	4.11808
0.00552713	4.09941
0.00555904	4.08083
0.00559114	4.06232
0.00562341	4.0439
0.00565588	4.02555
0.00568853	4.00729
0.00572137	3.9891
0.0057544	3.971
0.00578762	3.95297
0.00582103	3.93502
0.00585464	3.91715
0.00588844	3.89936
0.00592243	3.88164
0.00595662	3.864
0.00599101	3.84644
0.0060256	3.82896
0.00606038	3.81155
0.00609537	3.79422
0.00613056	3.77696
0.00616595	3.75978
0.00620155	3.74267
0.00623735	3.72564
0.00627336	3.70869
0.00630957	3.69181
0.006346	3.675
0.00638263	3.65826
0.00641948	3.6416
0.00645654	3.62502
0.00649382	3.6085
0.00653131	3.59206
0.00656901	3.57569
0.00660693	3.55939
0.00664508	3.54316
0.00668344	3.52701
0.00672202	3.51093
0.00676083	3.49491
0.00679986	3.47897
0.00683912	3.4631
0.0068786	3.4473
0.00691831	3.43157
0.00695825	3.4159
0.00699842	3.40031
0.00703882	3.38479
0.00707946	3.36933
0.00712033	3.35394
0.00716143	3.33862
0.00720278	3.32337
0.00724436	3.30819
0.00728618	3.29307
0.00732825	3.27802
0.00737055	3.26304
0.0074131	3.24812
0.0074559	3.23327
0.00749894	3.21849
0.00754223	3.20377
0.00758578	3.18912
0.00762957	3.17453
0.00767361	3.16
0.00771792	3.14555
0.00776247	3.13115
0.00780728	3.11682
0.00785236	3.10256
0.00789769	3.08835
0.00794328	3.07421
0.00798914	3.06014
0.00803526	3.04612
0.00808165	3.03217
0.00812831	3.01828
0.00817523	3.00446
0.00822243	2.99069
0.0082699	2.97699
0.00831764	2.96335
0.00836566	2.94977
0.00841395	2.93625
0.00846253	2.92279
0.00851138	2.90939
0.00856052	2.89605
0.00860994	2.88277
0.00865964	2.86955
0.00870964	2.85639
0.00875992	2.84329
0.00881049	2.83025
0.00886135	2.81726
0.00891251	2.80434
0.00896396	2.79147
0.00901571	2.77866
0.00906776	2.76591
0.00912011	2.75322
0.00917276	2.74058
0.00922571	2.728
0.00927897	2.71548
0.00933254	2.70301
0.00938642	2.6906
0.00944061	2.67824
0.00949511	2.66594
0.00954993	2.6537
0.00960506	2.64151
0.00966051	2.62938
0.00971628	2.6173
0.00977237	2.60528
0.00982879	2.59331
0.00988553	2.58139
0.0099426	2.56953
0.01	2.55773
0.0100577	2.54597
0.0101158	2.53427
0.0101742	2.52263
0.0102329	2.51103
0.010292	2.49949
0.0103514	2.488
0.0104112	2.47656
0.0104713	2.46518
0.0105317	2.45384
0.0105925	2.44256
0.0106537	2.43133
0.0107152	2.42015
0.0107771	2.40902
0.0108393	2.39794
0.0109018	2.38692
0.0109648	2.37594
0.0110281	2.36501
0.0110917	2.35414
0.0111558	2.34331
0.0112202	2.33253
0.011285	2.3218
0.0113501	2.31112
0.0114156	2.30049
0.0114815	2.28991
0.0115478	2.27937
0.0116145	2.26889
0.0116815	2.25845
0.011749	2.24806
0.0118168	2.23771
0.011885	2.22742
0.0119536	2.21717
0.0120226	2.20697
0.0120921	2.19681
0.0121619	2.18671
0.0122321	2.17664
0.0123027	2.16663
0.0123737	2.15666
0.0124451	2.14674
0.012517	2.13686
0.0125893	2.12703
0.0126619	2.11724
0.012735	2.1075
0.0128086	2.0978
0.0128825	2.08814
0.0129569	2.07854
0.0130317	2.06897
0.0131069	2.05945
0.0131826	2.04998
0.0132587	2.04054
0.0133352	2.03115
0.0134122	2.02181
0.0134896	2.01251
0.0135675	2.00325
0.0136458	1.99403
0.0137246	1.98485
0.0138038	1.97572
0.0138835	1.96663
0.0139637	1.95759
0.0140443	1.94858
0.0141254	1.93962
0.0142069	1.93069
0.0142889	1.92181
0.0143714	1.91297
0.0144544	1.90417
0.0145378	1.89541
0.0146218	1.8867
0.0147062	1.87802
0.0147911	1.86938
0.0148765	1.86079
0.0149624	1.85223
0.0150487	1.84371
0.0151356	1.83523
0.015223	1.8268
0.0153109	1.8184
0.0153993	1.81004
0.0154882	1.80172
0.0155776	1.79343
0.0156675	1.78519
0.015758	1.77698
0.0158489	1.76882
0.0159404	1.76069
0.0160325	1.7526
0.016125	1.74454
0.0162181	1.73653
0.0163117	1.72855
0.0164059	1.72061
0.0165006	1.7127
0.0165959	1.70484
0.0166917	1.69701
0.016788	1.68921
0.016885	1.68146
0.0169824	1.67373
0.0170805	1.66605
0.0171791	1.6584
0.0172783	1.65079
0.017378	1.64321
0.0174783	1.63567
0.0175792	1.62816
0.0176807	1.62069
0.0177828	1.61325
0.0178855	1.60585
0.0179887	1.59849
0.0180926	1.59115
0.018197	1.58386
0.0183021	1.57659
0.0184077	1.56936
0.018514	1.56217
0.0186209	1.55501
0.0187284	1.54788
0.0188365	1.54078
0.0189452	1.53372
0.0190546	1.5267
0.0191646	1.5197
0.0192752	1.51274
0.0193865	1.50581
0.0194984	1.49891
0.019611	1.49205
0.0197242	1.48522
0.0198381	1.47842
0.0199526	1.47165
0.0200678	1.46492
0.0201837	1.45822
0.0203002	1.45154
0.0204174	1.4449
0.0205353	1.4383
0.0206538	1.43172
0.020773	1.42517
0.020893	1.41866
0.0210136	1.41217
0.0211349	1.40572
0.0212569	1.3993
0.0213796	1.3929
0.021503	1.38654
0.0216272	1.38021
0.021752	1.37391
0.0218776	1.36764
0.0220039	1.36139
0.0221309	1.35518
0.0222587	1.349
0.0223872	1.34284
0.0225165	1.33672
0.0226464	1.33062
0.0227772	1.32456
0.0229087	1.31852
0.0230409	1.31251
0.0231739	1.30653
0.0233077	1.30058
0.0234423	1.29466
0.0235776	1.28876
0.0237137	1.28289
0.0238506	1.27705
0.0239883	1.27124
0.0241268	1.26546
0.0242661	1.2597
0.0244062	1.25397
0.0245471	1.24827
0.0246888	1.2426
0.0248313	1.23695
0.0249747	1.23133
0.0251189	1.22574
0.0252639	1.22017
0.0254097	1.21463
0.0255564	1.20912
0.025704	1.20363
0.0258523	1.19817
0.0260016	1.19274
0.0261517	1.18733
0.0263027	1.18195
0.0264545	1.17659
0.0266073	1.17126
0.0267609	1.16596
0.0269153	1.16068
0.0270707	1.15542
0.027227	1.15019
0.0273842	1.14499
0.0275423	1.13981
0.0277013	1.13466
0.0278612	1.12953
0.0280221	1.12442
0.0281838	1.11934
0.0283465	1.11429
0.0285102	1.10925
0.0286748	1.10425
0.0288403	1.09926
0.0290068	1.09431
0.0291743	1.08937
0.0293427	1.08446
0.0295121	1.07957
0.0296825	1.07471
0.0298538	1.06987
0.0300262	1.06505
0.0301995	1.06026
0.0303739	1.05549
0.0305492	1.05074
0.0307256	1.04601
0.030903	1.04131
0.0310814	1.03663
0.0312608	1.03198
0.0314413	1.02734
0.0316228	1.02273
0.0318053	1.01814
0.031989	1.01358
0.0321736	1.00903
0.0323594	1.00451
0.0325462	1.00001
0.0327341	0.995529
0.032923	0.991072
0.0331131	0.986636
0.0333043	0.982222
0.0334965	0.97783
0.0336899	0.973459
0.0338844	0.969109
0.03408	0.96478
0.0342768	0.960472
0.0344747	0.956186
0.0346737	0.95192
0.0348739	0.947675
0.0350752	0.943451
0.0352777	0.939247
0.0354813	0.935064
0.0356862	0.930901
0.0358922	0.926758
0.0360994	0.922636
0.0363078	0.918534
0.0365174	0.914452
0.0367282	0.910389
0.0369403	0.906347
0.0371535	0.902324
0.037368	0.898321
0.0375837	0.894338
0.0378007	0.890374
0.0380189	0.88643
0.0382384	0.882505
0.0384592	0.878599
0.0386812	0.874712
0.0389045	0.870844
0.0391291	0.866995
0.039355	0.863166
0.0395822	0.859354
0.0398107	0.855562
0.0400405	0.851788
0.0402717	0.848033
0.0405042	0.844296
0.040738	0.840578
0.0409732	0.836878
0.0412098	0.833196
0.0414477	0.829532
0.0416869	0.825886
0.0419276	0.822259
0.0421697	0.818649
0.0424131	0.815057
0.042658	0.811482
0.0429042	0.807925
0.0431519	0.804386
0.043401	0.800864
0.0436516	0.79736
0.0439036	0.793873
0.044157	0.790403
0.044412	0.78695
0.0446684	0.783515
0.0449262	0.780096
0.0451856	0.776694
0.0454465	0.773309
0.0457088	0.769941
0.0459727	0.76659
0.0462381	0.763255
0.046505	0.759937
0.0467735	0.756635
0.0470435	0.753349
0.0473151	0.75008
0.0475883	0.746827
0.047863	0.74359
0.0481393	0.74037
0.0484172	0.737165
0.0486968	0.733976
0.0489779	0.730803
0.0492606	0.727646
0.049545	0.724505
0.049831	0.721379
0.0501187	0.718269
0.0504081	0.715174
0.0506991	0.712095
0.0509918	0.709031
0.0512861	0.705982
0.0515822	0.702949
0.05188	0.699931
0.0521795	0.696927
0.0524807	0.693939
0.0527837	0.690966
0.0530884	0.688008
0.0533949	0.685064
0.0537032	0.682135
0.0540132	0.679221
0.054325	0.676321
0.0546387	0.673436
0.0549541	0.670566
0.0552713	0.66771
0.0555904	0.664868
0.0559114	0.66204
0.0562341	0.659227
0.0565588	0.656427
0.0568853	0.653642
0.0572137	0.650871
0.057544	0.648114
0.0578762	0.64537
0.0582103	0.642641
0.0585464	0.639925
0.0588844	0.637223
0.0592243	0.634534
0.0595662	0.631859
0.0599101	0.629198
0.060256	0.62655
0.0606038	0.623915
0.0609537	0.621293
0.0613056	0.618685
0.0616595	0.61609
0.0620155	0.613509
0.0623735	0.61094
0.0627336	0.608384
0.0630957	0.605841
0.06346	0.603311
0.0638263	0.600794
0.0641948	0.59829
0.0645654	0.595798
0.0649382	0.593319
0.0653131	0.590853
0.0656901	0.588399
0.0660693	0.585957
0.0664508	0.583528
0.0668344	0.581112
0.0672202	0.578707
0.0676083	0.576315
0.0679986	0.573935
0.0683912	0.571568
0.068786	0.569212
0.0691831	0.566868
0.0695825	0.564536
0.0699842	0.562217
0.0703882	0.559909
0.0707946	0.557612
0.0712033	0.555328
0.0716143	0.553055
0.0720278	0.550794
0.0724436	0.548545
0.0728618	0.546307
0.0732825	0.54408
0.0737055	0.541865
0.074131	0.539661
0.074559	0.537469
0.0749894	0.535288
0.0754223	0.533118
0.0758578	0.530959
0.0762957	0.528811
0.0767361	0.526674
0.0771792	0.524549
0.0776247	0.522434
0.0780728	0.52033
0.0785236	0.518237
0.0789769	0.516155
0.0794328	0.514084
0.0798914	0.512023
0.0803526	0.509973
0.0808165	0.507934
0.0812831	0.505905
0.0817523	0.503886
0.0822243	0.501878
0.082699	0.499881
0.0831764	0.497894
0.0836566	0.495917
0.0841395	0.49395
0.0846253	0.491994
0.0851138	0.490048
0.0856052	0.488112
0.0860994	0.486186
0.0865964	0.48427
0.0870964	0.482364
0.0875992	0.480468
0.0881049	0.478581
0.0886135	0.476705
0.0891251	0.474838
0.0896396	0.472982
0.0901571	0.471135
0.0906776	0.469297
0.0912011	0.467469
0.0917276	0.465651
0.0922571	0.463842
0.0927897	0.462043
0.0933254	0.460253
0.0938642	0.458473
0.0944061	0.456702
0.0949511	0.45494
0.0954993	0.453188
0.0960506	0.451444
0.0966051	0.44971
0.0971628	0.447985
0.0977237	0.44627
0.0982879	0.444563
0.0988553	0.442865
0.099426	0.441176
0.1	0.439496
0.100577	0.437825
0.101158	0.436163
0.101742	0.43451
0.102329	0.432865
0.10292	0.431229
0.103514	0.429602
0.104112	0.427984
0.104713	0.426374
0.105317	0.424772
0.105925	0.423179
0.106537	0.421595
0.107152	0.420019
0.107771	0.418452
0.108393	0.416892
0.109018	0.415342
0.109648	0.413799
0.110281	0.412265
0.110917	0.410739
0.111558	0.409221
0.112202	0.407711
0.11285	0.406209
0.113501	0.404716
0.114156	0.40323
0.114815	0.401752
0.115478	0.400283
0.116145	0.398821
0.116815	0.397367
0.11749	0.395921
0.118168	0.394483
0.11885	0.393052
0.119536	0.39163
0.120226	0.390215
0.120921	0.388807
0.121619	0.387407
0.122321	0.386015
0.123027	0.384631
0.123737	0.383254
0.124451	0.381884
0.12517	0.380522
0.125893	0.379167
0.126619	0.37782
0.12735	0.37648
0.128086	0.375147
0.128825	0.373821
0.129569	0.372503
0.130317	0.371192
0.131069	0.369888
0.131826	0.368592
0.132587	0.367302
0.133352	0.36602
0.134122	0.364744
0.134896	0.363476
0.135675	0.362215
0.136458	0.36096
0.137246	0.359713
0.138038	0.358472
0.138835	0.357238
0.139637	0.356011
0.140443	0.354791
0.141254	0.353577
0.142069	0.352371
0.142889	0.351171
0.143714	0.349977
0.144544	0.348791
0.145378	0.34761
0.146218	0.346437
0.147062	0.34527
0.147911	0.344109
0.148765	0.342955
0.149624	0.341808
0.150487	0.340667
0.151356	0.339532
0.15223	0.338404
0.153109	0.337282
0.153993	0.336166
0.154882	0.335057
0.155776	0.333953
0.156675	0.332856
0.15758	0.331766
0.158489	0.330681
0.159404	0.329603
0.160325	0.32853
0.16125	0.327464
0.162181	0.326404
0.163117	0.325349
0.164059	0.324301
0.165006	0.323259
0.165959	0.322223
0.166917	0.321192
0.16788	0.320168
0.16885	0.319149
0.169824	0.318136
0.170805	0.317129
0.171791	0.316128
0.172783	0.315133
0.17378	0.314143
0.174783	0.313159
0.175792	0.31218
0.176807	0.311208
0.177828	0.31024
0.178855	0.309279
0.179887	0.308323
0.180926	0.307373
0.18197	0.306428
0.183021	0.305488
0.184077	0.304554
0.18514	0.303626
0.186209	0.302703
0.187284	0.301785
0.188365	0.300873
0.189452	0.299966
0.190546	0.299064
0.191646	0.298168
0.192752	0.297277
0.193865	0.296391
0.194984	0.29551
0.19611	0.294635
0.197242	0.293765
0.198381	0.2929
0.199526	0.29204
0.200678	0.291185
0.201837	0.290335
0.203002	0.289491
0.204174	0.288651
0.205353	0.287816
0.206538	0.286987
0.20773	0.286162
0.20893	0.285342
0.210136	0.284527
0.211349	0.283717
0.212569	0.282912
0.213796	0.282112
0.21503	0.281317
0.216272	0.280526
0.21752	0.279741
0.218776	0.27896
0.220039	0.278183
0.221309	0.277412
0.222587	0.276645
0.223872	0.275883
0.225165	0.275125
0.226464	0.274373
0.227772	0.273624
0.229087	0.272881
0.230409	0.272142
0.231739	0.271407
0.233077	0.270677
0.234423	0.269952
0.235776	0.269231
0.237137	0.268514
0.238506	0.267802
0.239883	0.267095
0.241268	0.266391
0.242661	0.265693
0.244062	0.264998
0.245471	0.264308
0.246888	0.263622
0.248313	0.262941
0.249747	0.262264
0.251189	0.261591
0.252639	0.260922
0.254097	0.260258
0.255564	0.259598
0.25704	0.258942
0.258523	0.25829
0.260016	0.257643
0.261517	0.256999
0.263027	0.25636
0.264545	0.255724
0.266073	0.255093
0.267609	0.254466
0.269153	0.253843
0.270707	0.253224
0.27227	0.252609
0.273842	0.251998
0.275423	0.251391
0.277013	0.250788
0.278612	0.250189
0.280221	0.249593
0.281838	0.249002
0.283465	0.248415
0.285102	0.247831
0.286748	0.247251
0.288403	0.246675
0.290068	0.246103
0.291743	0.245535
0.293427	0.24497
0.295121	0.24441
0.296825	0.243853
0.298538	0.243299
0.300262	0.24275
0.301995	0.242204
0.303739	0.241662
0.305492	0.241123
0.307256	0.240588
0.30903	0.240057
0.310814	0.239529
0.312608	0.239005
0.314413	0.238485
0.316228	0.237968
0.318053	0.237455
0.31989	0.236945
0.321736	0.236438
0.323594	0.235936
0.325462	0.235436
0.327341	0.23494
0.32923	0.234448
0.331131	0.233959
0.333043	0.233474
0.334965	0.232991
0.336899	0.232513
0.338844	0.232037
0.3408	0.231565
0.342768	0.231097
0.344747	0.230631
0.346737	0.230169
0.348739	0.22971
0.350752	0.229255
0.352777	0.228803
0.354813	0.228354
0.356862	0.227908
0.358922	0.227466
0.360994	0.227026
0.363078	0.22659
0.365174	0.226157
0.367282	0.225728
0.369403	0.225301
0.371535	0.224878
0.37368	0.224457
0.375837	0.22404
0.378007	0.223626
0.380189	0.223215
0.382384	0.222807
0.384592	0.222402
0.386812	0.222001
0.389045	0.221602
0.391291	0.221206
0.39355	0.220813
0.395822	0.220423
0.398107	0.220036
0.400405	0.219652
0.402717	0.219272
0.405042	0.218893
0.40738	0.218518
0.409732	0.218146
0.412098	0.217777
0.414477	0.21741
0.416869	0.217047
0.419276	0.216686
0.421697	0.216328
0.424131	0.215973
0.42658	0.215621
0.429042	0.215271
0.431519	0.214925
0.43401	0.214581
0.436516	0.21424
0.439036	0.213901
0.44157	0.213566
0.44412	0.213233
0.446684	0.212903
0.449262	0.212575
0.451856	0.21225
0.454465	0.211928
0.457088	0.211609
0.459727	0.211292
0.462381	0.210978
0.46505	0.210666
0.467735	0.210357
0.470435	0.210051
0.473151	0.209747
0.475883	0.209446
0.47863	0.209147
0.481393	0.208851
0.484172	0.208558
0.486968	0.208267
0.489779	0.207978
0.492606	0.207692
0.49545	0.207409
0.49831	0.207128
0.501187	0.206849
0.504081	0.206573
0.506991	0.206299
0.509918	0.206028
0.512861	0.20576
0.515822	0.205493
0.5188	0.205229
0.521795	0.204968
0.524807	0.204709
0.527837	0.204452
0.530884	0.204187
0.533949	0.20391
0.537032	0.203635
0.540132	0.203363
0.54325	0.203093
0.546387	0.202825
0.549541	0.20256
0.552713	0.202296
0.555904	0.202035
0.559114	0.201776
0.562341	0.20152
0.565588	0.201265
0.568853	0.201013
0.572137	0.200763
0.57544	0.200515
0.578762	0.200269
0.582103	0.200026
0.585464	0.199784
0.588844	0.199545
0.592243	0.199308
0.595662	0.199072
0.599101	0.198839
0.60256	0.198608
0.606038	0.198379
0.609537	0.198153
0.613056	0.197928
0.616595	0.197705
0.620155	0.197484
0.623735	0.197266
0.627336	0.197049
0.630957	0.196834
0.6346	0.196621
0.638263	0.196411
0.641948	0.196202
0.645654	0.195995
0.649382	0.19579
0.653131	0.195587
0.656901	0.195386
0.660693	0.195187
0.664508	0.19499
0.668344	0.194795
0.672202	0.194601
0.676083	0.19441
0.679986	0.19422
0.683912	0.194032
0.68786	0.193846
0.691831	0.193662
0.695825	0.19348
0.699842	0.193299
0.703882	0.19312
0.707946	0.192944
0.712033	0.192768
0.716143	0.192595
0.720278	0.192424
0.724436	0.192254
0.728618	0.192086
0.732825	0.191919
0.737055	0.191755
0.74131	0.191592
0.74559	0.191431
0.749894	0.191271
0.754223	0.191114
0.758578	0.190958
0.762957	0.190803
0.767361	0.19065
0.771792	0.190499
0.776247	0.19035
0.780728	0.190202
0.785236	0.190056
0.789769	0.189912
0.794328	0.189769
0.798914	0.189627
0.803526	0.189488
0.808165	0.189349
0.812831	0.189213
0.817523	0.189078
0.822243	0.188945
0.82699	0.188813
0.831764	0.188682
0.836566	0.188554
0.841395	0.188426
0.846253	0.1883
0.851138	0.188176
0.856052	0.188053
0.860994	0.187932
0.865964	0.187812
0.870964	0.187694
0.875992	0.187577
0.881049	0.187462
0.886135	0.187348
0.891251	0.187235
0.896396	0.187124
0.901571	0.187015
0.906776	0.186907
0.912011	0.1868
0.917276	0.186694
0.922571	0.18659
0.927897	0.186488
0.933254	0.186386
0.938642	0.186286
0.944061	0.186188
0.949511	0.186091
0.954993	0.185995
0.960506	0.1859
0.966051	0.185807
0.971628	0.185715
0.977237	0.185625
0.982879	0.185535
0.988553	0.185447
0.99426	0.185361
1	0.185275
1.00577	0.185191
1.01158	0.185108
1.01742	0.185027
1.02329	0.184946
1.0292	0.184867
1.03514	0.184789
1.04112	0.184713
1.04713	0.184637
1.05317	0.184563
1.05925	0.18449
1.06537	0.184418
1.07152	0.184348
1.07771	0.184278
1.08393	0.18421
1.09018	0.184143
1.09648	0.184077
1.10281	0.184012
1.10917	0.183948
1.11558	0.183886
1.12202	0.183824
1.1285	0.183764
1.13501	0.183705
1.14156	0.183647
1.14815	0.18359
1.15478	0.183534
1.16145	0.183479
1.16815	0.183426
1.1749	0.183373
1.18168	0.183321
1.1885	0.183271
1.19536	0.183222
1.20226	0.183173
1.20921	0.183126
1.21619	0.183079
1.22321	0.183034
1.23027	0.18299
1.23737	0.182947
1.24451	0.182904
1.2517	0.182863
1.25893	0.182823
1.26619	0.182784
1.2735	0.182745
1.28086	0.182708
1.28825	0.182672
1.29569	0.182636
1.30317	0.182602
1.31069	0.182568
1.31826	0.182536
1.32587	0.182504
1.33352	0.182473
1.34122	0.182444
1.34896	0.182415
1.35675	0.182387
1.36458	0.18236
1.37246	0.182334
1.38038	0.182308
1.38835	0.182284
1.39637	0.18226
1.40443	0.182238
1.41254	0.182216
1.42069	0.182195
1.42889	0.182175
1.43714	0.182156
1.44544	0.182137
1.45378	0.18212
1.46218	0.182103
1.47062	0.182087
1.47911	0.182072
1.48765	0.182058
1.49624	0.182045
1.50487	0.182032
1.51356	0.18202
1.5223	0.182009
1.53109	0.181999
1.53993	0.181989
1.54882	0.18198
1.55776	0.181972
1.56675	0.181965
1.5758	0.181959
1.58489	0.181953
1.59404	0.181948
1.60325	0.181944
1.6125	0.18194
1.62181	0.181937
1.63117	0.181935
1.64059	0.181934
1.65006	0.181933
1.65959	0.181934
1.66917	0.181934
1.6788	0.181936
1.6885	0.181938
1.69824	0.181941
1.70805	0.181944
1.71791	0.181948
1.72783	0.181953
1.7378	0.181959
1.74783	0.181965
1.75792	0.181972
1.76807	0.181979
1.77828	0.181987
1.78855	0.181996
1.79887	0.182005
1.80926	0.182015
1.8197	0.182026
1.83021	0.182037
1.84077	0.182049
1.8514	0.182062
1.86209	0.182075
1.87284	0.182088
1.88365	0.182103
1.89452	0.182117
1.90546	0.182133
1.91646	0.182149
1.92752	0.182165
1.93865	0.182182
1.94984	0.1822
1.9611	0.182218
1.97242	0.182237
1.98381	0.182257
1.99526	0.182276
2.00678	0.182297
2.01837	0.182318
2.03002	0.182339
2.04174	0.182361
2.05353	0.182384
2.06538	0.182407
2.0773	0.182431
2.0893	0.182455
2.10136	0.182479
2.11349	0.182504
2.12569	0.18253
2.13796	0.182556
2.1503	0.182583
2.16272	0.18261
2.1752	0.182637
2.18776	0.182665
2.20039	0.182694
2.21309	0.182723
2.22587	0.182752
2.23872	0.182782
2.25165	0.182812
2.26464	0.182843
2.27772	0.182874
2.29087	0.182906
2.30409	0.182938
2.31739	0.182971
2.33077	0.183004
2.34423	0.183037
2.35776	0.183071
2.37137	0.183105
2.38506	0.18314
2.39883	0.183175
2.41268	0.18321
2.42661	0.183246
2.44062	0.183282
2.45471	0.183319
2.46888	0.183356
2.48313	0.183394
2.49747	0.183431
2.51189	0.18347
2.52639	0.183508
2.54097	0.183547
2.55564	0.183586
2.5704	0.183626
2.58523	0.183666
2.60016	0.183707
2.61517	0.183747
2.63027	0.183788
2.64545	0.18383
2.66073	0.183872
2.67609	0.183914
2.69153	0.183956
2.70707	0.183999
2.7227	0.184042
2.73842	0.184086
2.75423	0.18413
2.77013	0.184174
2.78612	0.184218
2.80221	0.184263
2.81838	0.184308
2.83465	0.184353
2.85102	0.184399
2.86748	0.184445
2.88403	0.184491
2.90068	0.184538
2.91743	0.184585
2.93427	0.184632
2.95121	0.184679
2.96825	0.184727
2.98538	0.184775
3.00262	0.184823
3.01995	0.184872
3.03739	0.184921
3.05492	0.18497
3.07256	0.185019
3.0903	0.185069
3.10814	0.185119
3.12608	0.185169
3.14413	0.185219
3.16228	0.18527
3.18053	0.185321
3.1989	0.185372
3.21736	0.185424
3.23594	0.185475
3.25462	0.185527
3.27341	0.185579
3.2923	0.185631
3.31131	0.185684
3.33043	0.185737
3.34965	0.18579
3.36899	0.185843
3.38844	0.185897
3.408	0.18595
3.42768	0.186004
3.44747	0.186058
3.46737	0.186113
3.48739	0.186167
3.50752	0.186222
3.52777	0.186277
3.54813	0.186332
3.56862	0.186387
3.58922	0.186443
3.60994	0.186498
3.63078	0.186554
3.65174	0.18661
3.67282	0.186667
3.69403	0.186723
3.71535	0.18678
3.7368	0.186836
3.75837	0.186893
3.78007	0.186951
3.80189	0.187008
3.82384	0.187065
3.84592	0.187123
3.86812	0.187181
3.89045	0.187239
3.91291	0.187297
3.9355	0.187355
3.95822	0.187414
3.98107	0.187472
4.00405	0.187531
4.02717	0.18759
4.05042	0.187649
4.0738	0.187708
4.09732	0.187768
4.12098	0.187827
4.14477	0.187887
4.16869	0.187946
4.19276	0.188006
4.21697	0.188066
4.24131	0.188127
4.2658	0.188187
4.29042	0.188247
4.31519	0.188308
4.3401	0.188368
4.36516	0.188429
4.39036	0.18849
4.4157	0.188551
4.4412	0.188612
4.46684	0.188674
4.49262	0.188735
4.51856	0.188796
4.54465	0.188858
4.57088	0.18892
4.59727	0.188981
4.62381	0.189043
4.6505	0.189105
4.67735	0.189168
4.70435	0.18923
4.73151	0.189292
4.75883	0.189354
4.7863	0.189417
4.81393	0.18948
4.84172	0.189542
4.86968	0.189605
4.89779	0.189668
4.92606	0.189731
4.9545	0.189794
4.9831	0.189857
5.01187	0.18992
5.04081	0.189983
5.06991	0.190047
5.09918	0.19011
5.12861	0.190174
5.15822	0.190237
5.188	0.190301
5.21795	0.190365
5.24807	0.190428
5.27837	0.190492
5.30884	0.190556
5.33949	0.19062
5.37032	0.190684
5.40132	0.190748
5.4325	0.190813
5.46387	0.190877
5.49541	0.190941
5.52713	0.191006
5.55904	0.19107
5.59114	0.191134
5.62341	0.191199
5.65588	0.191264
5.68853	0.191328
5.72137	0.191393
5.7544	0.191458
5.78762	0.191522
5.82103	0.191587
5.85464	0.191652
5.88844	0.191717
5.92243	0.191782
5.95662	0.191847
5.99101	0.191912
6.0256	0.191977
6.06038	0.192042
6.09537	0.192107
6.13056	0.192173
6.16595	0.192238
6.20155	0.192303
6.23735	0.192368
6.27336	0.192434
6.30957	0.192499
6.346	0.192565
6.38263	0.19263
6.41948	0.192695
6.45654	0.192761
6.49382	0.192826
6.53131	0.192892
6.56901	0.192957
6.60693	0.193023
6.64508	0.193089
6.68344	0.193154
6.72202	0.19322
6.76083	0.193286
6.79986	0.193351
6.83912	0.193417
6.8786	0.193483
6.91831	0.193548
6.95825	0.193614
6.99842	0.19368
7.03882	0.193746
7.07946	0.193812
7.12033	0.193877
7.16143	0.193943
7.20278	0.194009
7.24436	0.194075
7.28618	0.194141
7.32825	0.194207
7.37055	0.194272
7.4131	0.194338
7.4559	0.194404
7.49894	0.19447
7.54223	0.194536
7.58578	0.194602
7.62957	0.194668
7.67361	0.194734
7.71792	0.194799
7.76247	0.194865
7.80728	0.194931
7.85236	0.194997
7.89769	0.195063
7.94328	0.195129
7.98914	0.195195
8.03526	0.195261
8.08165	0.195327
8.12831	0.195392
8.17523	0.195458
8.22243	0.195524
8.2699	0.19559
8.31764	0.195656
8.36566	0.195722
8.41395	0.195787
8.46253	0.195853
8.51138	0.195919
8.56052	0.195985
8.60994	0.196051
8.65964	0.196116
8.70964	0.196182
8.75992	0.196248
8.81049	0.196314
8.86135	0.196379
8.91251	0.196445
8.96396	0.196511
9.01571	0.196576
9.06776	0.196642
9.12011	0.196708
9.17276	0.196773
9.22571	0.196839
9.27897	0.196905
9.33254	0.19697
9.38642	0.197036
9.44061	0.197101
9.49511	0.197167
9.54993	0.197232
9.60506	0.197298
9.66051	0.197363
9.71628	0.197429
9.77237	0.197494
9.82879	0.197559
9.88553	0.197625
9.9426	0.19769
10	0.197755
10.0577	0.197821
10.1158	0.197886
10.1742	0.197951
10.2329	0.198016
10.292	0.198082
10.3514	0.198147
10.4112	0.198212
10.4713	0.198277
10.5317	0.198342
10.5925	0.198407
10.6537	0.198472
10.7152	0.198537
10.7771	0.198602
10.8393	0.198667
10.9018	0.198732
10.9648	0.198797
11.0281	0.198862
11.0917	0.198927
11.1558	0.198991
11.2202	0.199056
11.285	0.199121
11.3501	0.199186
11.4156	0.19925
11.4815	0.199315
11.5478	0.199379
11.6145	0.199444
11.6815	0.199509
11.749	0.199573
11.8168	0.199638
11.885	0.199702
11.9536	0.199766
12.0226	0.199831
12.0921	0.199895
12.1619	0.199959
12.2321	0.200024
12.3027	0.200088
12.3737	0.200152
12.4451	0.200216
12.517	0.20028
12.5893	0.200344
12.6619	0.200408
12.735	0.200472
12.8086	0.200536
12.8825	0.2006
12.9569	0.200664
13.0317	0.200728
13.1069	0.200792
13.1826	0.200856
13.2587	0.200919
13.3352	0.200983
13.4122	0.201047
13.4896	0.20111
13.5675	0.201174
13.6458	0.201238
13.7246	0.201301
13.8038	0.201365
13.8835	0.201428
13.9637	0.201491
14.0443	0.201555
14.1254	0.201618
14.2069	0.201681
14.2889	0.201745
14.3714	0.201808
14.4544	0.201871
14.5378	0.201934
14.6218	0.201997
14.7062	0.20206
14.7911	0.202123
14.8765	0.202186
14.9624	0.202249
15.0487	0.202312
15.1356	0.202375
15.223	0.202438
15.3109	0.2025
15.3993	0.202563
15.4882	0.202626
15.5776	0.202688
15.6675	0.202751
15.758	0.202813
15.8489	0.202876
15.9404	0.202938
16.0325	0.203001
16.125	0.203063
16.2181	0.203126
16.3117	0.203188
16.4059	0.20325
16.5006	0.203312
16.5959	0.203374
16.6917	0.203437
16.788	0.203499
16.885	0.203561
16.9824	0.203623
17.0805	0.203685
17.1791	0.203746
17.2783	0.203808
17.378	0.20387
17.4783	0.203932
17.5792	0.203994
17.6807	0.204055
17.7828	0.204117
17.8855	0.204179
17.9887	0.20424
18.0926	0.204302
18.197	0.204363
18.3021	0.204424
18.4077	0.204486
18.514	0.204547
18.6209	0.204608
18.7284	0.20467
18.8365	0.204731
18.9452	0.204792
19.0546	0.204853
19.1646	0.204914
19.2752	0.204975
19.3865	0.205036
19.4984	0.205097
19.611	0.205158
19.7242	0.205219
19.8381	0.20528
19.9526	0.205341
20.0678	0.205401
20.1837	0.205462
20.3002	0.205523
20.4174	0.205583
20.5353	0.205644
20.6538	0.205704
20.773	0.205765
20.893	0.205825
21.0136	0.205885
21.1349	0.205946
21.2569	0.206006
21.3796	0.206066
21.503	0.206126
21.6272	0.206187
21.752	0.206247
21.8776	0.206307
22.0039	0.206367
22.1309	0.206427
22.2587	0.206487
22.3872	0.206547
22.5165	0.206606
22.6464	0.206666
22.7772	0.206726
22.9087	0.206786
23.0409	0.206845
23.1739	0.206905
23.3077	0.206965
23.4423	0.207024
23.5776	0.207084
23.7137	0.207143
23.8506	0.207203
23.9883	0.207262
24.1268	0.207321
24.2661	0.20738
24.4062	0.20744
24.5471	0.207499
24.6888	0.207558
24.8313	0.207617
24.9747	0.207676
25.1189	0.207735
25.2639	0.207794
25.4097	0.207853
25.5564	0.207912
25.704	0.207971
25.8523	0.20803
26.0016	0.208089
26.1517	0.208147
26.3027	0.208206
26.4545	0.208265
26.6073	0.208323
26.7609	0.208382
26.9153	0.20844
27.0707	0.208499
27.227	0.208557
27.3842	0.208616
27.5423	0.208674
27.7013	0.208732
27.8612	0.208791
28.0221	0.208849
28.1838	0.208907
28.3465	0.208965
28.5102	0.209023
28.6748	0.209081
28.8403	0.209139
29.0068	0.209197
29.1743	0.209255
29.3427	0.209313
29.5121	0.209371
29.6825	0.209429
29.8538	0.209487
30.0262	0.209544
30.1995	0.209602
30.3739	0.20966
30.5492	0.209717
30.7256	0.209775
30.903	0.209832
31.0814	0.20989
31.2608	0.209947
31.4413	0.210005
31.6228	0.210062
31.8053	0.210119
31.989	0.210177
32.1736	0.210234
32.3594	0.210291
32.5462	0.210348
32.7341	0.210405
32.923	0.210463
33.1131	0.21052
33.3043	0.210577
33.4965	0.210634
33.6899	0.210691
33.8844	0.210748
34.08	0.210804
34.2768	0.210861
34.4747	0.210918
34.6737	0.210975
34.8739	0.211031
35.0752	0.211088
35.2777	0.211145
35.4813	0.211201
35.6862	0.211258
35.8922	0.211314
36.0994	0.211371
36.3078	0.211427
36.5174	0.211484
36.7282	0.21154
36.9403	0.211597
37.1535	0.211653
37.368	0.211709
37.5837	0.211765
37.8007	0.211822
38.0189	0.211878
38.2384	0.211934
38.4592	0.21199
38.6812	0.212046
38.9045	0.212102
39.1291	0.212158
39.355	0.212214
39.5822	0.21227
39.8107	0.212326
40.0405	0.212382
40.2717	0.212437
40.5042	0.212493
40.738	0.212549
40.9732	0.212605
41.2098	0.21266
41.4477	0.212716
41.6869	0.212771
41.9276	0.212827
42.1697	0.212882
42.4131	0.212938
42.658	0.212993
42.9042	0.213049
43.1519	0.213104
43.401	0.21316
43.6516	0.213215
43.9036	0.21327
44.157	0.213325
44.412	0.213381
44.6684	0.213436
44.9262	0.213491
45.1856	0.213546
45.4465	0.213601
45.7088	0.213656
45.9727	0.213711
46.2381	0.213766
46.505	0.213821
46.7735	0.213876
47.0435	0.213931
47.3151	0.213986
47.5883	0.214041
47.863	0.214095
48.1393	0.21415
48.4172	0.214205
48.6968	0.21426
48.9779	0.214314
49.2606	0.214369
49.545	0.214424
49.831	0.214478
50.1187	0.214533
50.4081	0.214587
50.6991	0.214642
50.9918	0.214696
51.2861	0.214751
51.5822	0.214805
51.88	0.214859
52.1795	0.214914
52.4807	0.214968
52.7837	0.215022
53.0884	0.215076
53.3949	0.215131
53.7032	0.215185
54.0132	0.215239
54.325	0.215293
54.6387	0.215347
54.9541	0.215401
55.2713	0.215455
55.5904	0.215509
55.9114	0.215563
56.2341	0.215617
56.5588	0.215671
56.8853	0.215725
57.2137	0.215779
57.544	0.215833
57.8762	0.215886
58.2103	0.21594
58.5464	0.215994
58.8844	0.216048
59.2243	0.216101
59.5662	0.216155
59.9101	0.216209
60.256	0.216262
60.6038	0.216316
60.9537	0.21637
61.3056	0.216423
61.6595	0.216477
62.0155	0.21653
62.3735	0.216584
62.7336	0.216637
63.0957	0.21669
63.46	0.216744
63.8263	0.216797
64.1948	0.21685
64.5654	0.216904
64.9382	0.216957
65.3131	0.21701
65.6901	0.217063
66.0693	0.217117
66.4508	0.21717
66.8344	0.217223
67.2202	0.217276
67.6083	0.217329
67.9986	0.217382
68.3912	0.217435
68.786	0.217488
69.1831	0.217541
69.5825	0.217594
69.9842	0.217647
70.3882	0.2177
70.7946	0.217753
71.2033	0.217806
71.6143	0.217859
72.0278	0.217912
72.4436	0.217965
72.8618	0.218017
73.2825	0.21807
73.7055	0.218123
74.131	0.218176
74.559	0.218228
74.9894	0.218281
75.4223	0.218334
75.8578	0.218386
76.2957	0.218439
76.7361	0.218491
77.1792	0.218544
77.6247	0.218597
78.0728	0.218649
78.5236	0.218702
78.9769	0.218754
79.4328	0.218807
79.8914	0.218859
80.3526	0.218911
80.8165	0.218964
81.2831	0.219016
81.7523	0.219069
82.2243	0.219121
82.699	0.219173
83.1764	0.219226
83.6566	0.219278
84.1395	0.21933
84.6253	0.219382
85.1138	0.219435
85.6052	0.219487
86.0994	0.219539
86.5964	0.219591
87.0964	0.219643
87.5992	0.219695
88.1049	0.219747
88.6135	0.2198
89.1251	0.219852
89.6396	0.219904
90.1571	0.219956
90.6776	0.220008
91.2011	0.22006
91.7276	0.220112
92.2571	0.220164
92.7897	0.220216
93.3254	0.220267
93.8642	0.220319
94.4061	0.220371
94.9511	0.220423
95.4993	0.220475
96.0506	0.220527
96.6051	0.220579
97.1628	0.22063
97.7237	0.220682
98.2879	0.220734
98.8553	0.220786
99.426	0.220837
100	0.220889
100.577	0.220941
101.158	0.220992
101.742	0.221044
102.329	0.221096
102.92	0.221147
103.514	0.221199
104.112	0.221251
104.713	0.221302
105.317	0.221354
105.925	0.221405
106.537	0.221457
107.152	0.221508
107.771	0.22156
108.393	0.221611
109.018	0.221663
109.648	0.221714
110.281	0.221766
110.917	0.221817
111.558	0.221869
112.202	0.22192
112.85	0.221971
113.501	0.222023
114.156	0.222074
114.815	0.222126
115.478	0.222177
116.145	0.222228
116.815	0.22228
117.49	0.222331
118.168	0.222382
118.85	0.222433
119.536	0.222485
120.226	0.222536
120.921	0.222587
121.619	0.222638
122.321	0.22269
123.027	0.222741
123.737	0.222792
124.451	0.222843
125.17	0.222894
125.893	0.222945
126.619	0.222996
127.35	0.223048
128.086	0.223099
128.825	0.22315
129.569	0.223201
130.317	0.223252
131.069	0.223303
131.826	0.223354
132.587	0.223405
133.352	0.223456
134.122	0.223507
134.896	0.223558
135.675	0.223609
136.458	0.22366
137.246	0.223711
138.038	0.223762
138.835	0.223813
139.637	0.223864
140.443	0.223915
141.254	0.223966
142.069	0.224017
142.889	0.224068
143.714	0.224119
144.544	0.224169
145.378	0.22422
146.218	0.224271
147.062	0.224322
147.911	0.224373
148.765	0.224424
149.624	0.224474
150.487	0.224525
151.356	0.224576
152.23	0.224627
153.109	0.224678
153.993	0.224728
154.882	0.224779
155.776	0.22483
156.675	0.224881
157.58	0.224931
158.489	0.224982
159.404	0.225033
160.325	0.225084
161.25	0.225134
162.181	0.225185
163.117	0.225236
164.059	0.225286
165.006	0.225337
165.959	0.225388
166.917	0.225438
167.88	0.225489
168.85	0.22554
169.824	0.22559
170.805	0.225641
171.791	0.225692
172.783	0.225742
173.78	0.225793
174.783	0.225844
175.792	0.225894
176.807	0.225945
177.828	0.225995
178.855	0.226046
179.887	0.226097
180.926	0.226147
181.97	0.226198
183.021	0.226248
184.077	0.226299
185.14	0.226349
186.209	0.2264
187.284	0.22645
188.365	0.226501
189.452	0.226551
190.546	0.226602
191.646	0.226652
192.752	0.226703
193.865	0.226753
194.984	0.226804
196.11	0.226854
197.242	0.226905
198.381	0.226955
199.526	0.227006
200.678	0.227056
201.837	0.227107
203.002	0.227157
204.174	0.227208
205.353	0.227258
206.538	0.227309
207.73	0.227359
208.93	0.22741
210.136	0.22746
211.349	0.22751
212.569	0.227561
213.796	0.227611
215.03	0.227662
216.272	0.227712
217.52	0.227763
218.776	0.227813
220.039	0.227863
221.309	0.227914
222.587	0.227964
223.872	0.228015
225.165	0.228065
226.464	0.228115
227.772	0.228166
229.087	0.228216
230.409	0.228266
231.739	0.228317
233.077	0.228367
234.423	0.228418
235.776	0.228468
237.137	0.228518
238.506	0.228569
239.883	0.228619
241.268	0.228669
242.661	0.22872
244.062	0.22877
245.471	0.22882
246.888	0.228871
248.313	0.228921
249.747	0.228971
251.189	0.229022
252.639	0.229072
254.097	0.229122
255.564	0.229173
257.04	0.229223
258.523	0.229273
260.016	0.229324
261.517	0.229374
263.027	0.229424
264.545	0.229475
266.073	0.229525
267.609	0.229575
269.153	0.229626
270.707	0.229676
272.27	0.229726
273.842	0.229777
275.423	0.229827
277.013	0.229877
278.612	0.229928
280.221	0.229978
281.838	0.230028
283.465	0.230079
285.102	0.230129
286.748	0.230179
288.403	0.230229
290.068	0.23028
291.743	0.23033
293.427	0.23038
295.121	0.230431
296.825	0.230481
298.538	0.230531
300.262	0.230581
301.995	0.230632
303.739	0.230682
305.492	0.230732
307.256	0.230783
309.03	0.230833
310.814	0.230883
312.608	0.230934
314.413	0.230984
316.228	0.231034
318.053	0.231084
319.89	0.231135
321.736	0.231185
323.594	0.231235
325.462	0.231286
327.341	0.231336
329.23	0.231386
331.131	0.231436
333.043	0.231487
334.965	0.231537
336.899	0.231587
338.844	0.231637
340.8	0.231688
342.768	0.231738
344.747	0.231788
346.737	0.231839
348.739	0.231889
350.752	0.231939
352.777	0.231989
354.813	0.23204
356.862	0.23209
358.922	0.23214
360.994	0.232191
363.078	0.232241
365.174	0.232291
367.282	0.232341
369.403	0.232392
371.535	0.232442
373.68	0.232492
375.837	0.232543
378.007	0.232593
380.189	0.232643
382.384	0.232693
384.592	0.232744
386.812	0.232794
389.045	0.232844
391.291	0.232894
393.55	0.232945
395.822	0.232995
398.107	0.233045
400.405	0.233095
402.717	0.233146
405.042	0.233196
407.38	0.233246
409.732	0.233297
412.098	0.233347
414.477	0.233397
416.869	0.233447
419.276	0.233498
421.697	0.233548
424.131	0.233598
426.58	0.233648
429.042	0.233699
431.519	0.233749
434.01	0.233799
436.516	0.23385
439.036	0.2339
441.57	0.23395
444.12	0.234
446.684	0.234051
449.262	0.234101
451.856	0.234151
454.465	0.234201
457.088	0.234252
459.727	0.234302
462.381	0.234352
465.05	0.234402
467.735	0.234453
470.435	0.234503
473.151	0.234553
475.883	0.234603
478.63	0.234654
481.393	0.234704
484.172	0.234754
486.968	0.234804
489.779	0.234855
492.606	0.234905
495.45	0.234955
498.31	0.235005
501.187	0.235056
504.081	0.235106
506.991	0.235156
509.918	0.235207
512.861	0.235257
515.822	0.235307
518.8	0.235357
521.795	0.235408
524.807	0.235458
527.837	0.235508
530.884	0.235558
533.949	0.235609
537.032	0.235659
540.132	0.235709
543.25	0.235759
546.387	0.23581
549.541	0.23586
552.713	0.23591
555.904	0.23596
559.114	0.236011
562.341	0.236061
565.588	0.236111
568.853	0.236161
572.137	0.236212
575.44	0.236262
578.762	0.236312
582.103	0.236362
585.464	0.236413
588.844	0.236463
592.243	0.236513
595.662	0.236563
599.101	0.236614
602.56	0.236664
606.038	0.236714
609.537	0.236764
613.056	0.236815
616.595	0.236865
620.155	0.236915
623.735	0.236965
627.336	0.237016
630.957	0.237066
634.6	0.237116
638.263	0.237166
641.948	0.237217
645.654	0.237267
649.382	0.237317
653.131	0.237367
656.901	0.237418
660.693	0.237468
664.508	0.237518
668.344	0.237568
672.202	0.237618
676.083	0.237669
679.986	0.237719
683.912	0.237769
687.86	0.237819
691.831	0.23787
695.825	0.23792
699.842	0.23797
703.882	0.23802
707.946	0.238071
712.033	0.238121
716.143	0.238171
720.278	0.238221
724.436	0.238272
728.618	0.238322
732.825	0.238372
737.055	0.238422
741.31	0.238473
745.59	0.238523
749.894	0.238573
754.223	0.238623
758.578	0.238674
762.957	0.238724
767.361	0.238774
771.792	0.238824
776.247	0.238874
780.728	0.238925
785.236	0.238975
789.769	0.239025
794.328	0.239075
798.914	0.239126
803.526	0.239176
808.165	0.239226
812.831	0.239276
817.523	0.239327
822.243	0.239377
826.99	0.239427
831.764	0.239477
836.566	0.239528
841.395	0.239578
846.253	0.239628
851.138	0.239678
856.052	0.239728
860.994	0.239779
865.964	0.239829
870.964	0.239879
875.992	0.239929
881.049	0.23998
886.135	0.24003
891.251	0.24008
896.396	0.24013
901.571	0.240181
906.776	0.240231
912.011	0.240281
917.276	0.240331
922.571	0.240382
927.897	0.240432
933.254	0.240482
938.642	0.240532
944.061	0.240582
949.511	0.240633
954.993	0.240683
960.506	0.240733
966.051	0.240783
971.628	0.240834
977.237	0.240884
982.879	0.240934
988.553	0.240984
994.26	0.241035
1000	0.241085
1005.77	0.241135
1011.58	0.241185
1017.42	0.241235
1023.29	0.241286
1029.2	0.241336
1035.14	0.241386
1041.12	0.241436
1047.13	0.241487
1053.17	0.241537
1059.25	0.241587
1065.37	0.241637
1071.52	0.241687
1077.71	0.241738
1083.93	0.241788
1090.18	0.241838
1096.48	0.241888
1102.81	0.241939
1109.17	0.241989
1115.58	0.242039
1122.02	0.242089
1128.5	0.24214
1135.01	0.24219
1141.56	0.24224
1148.15	0.24229
1154.78	0.24234
1161.45	0.242391
1168.15	0.242441
1174.9	0.242491
1181.68	0.242541
1188.5	0.242592
1195.36	0.242642
1202.26	0.242692
1209.21	0.242742
1216.19	0.242792
1223.21	0.242843
1230.27	0.242893
1237.37	0.242943
1244.51	0.242993
1251.7	0.243044
1258.93	0.243094
1266.19	0.243144
1273.5	0.243194
1280.86	0.243244
1288.25	0.243295
1295.69	0.243345
1303.17	0.243395
1310.69	0.243445
1318.26	0.243496
1325.87	0.243546
1333.52	0.243596
1341.22	0.243646
1348.96	0.243696
1356.75	0.243747
1364.58	0.243797
1372.46	0.243847
1380.38	0.243897
1388.35	0.243948
1396.37	0.243998
1404.43	0.244048
1412.54	0.244098
1420.69	0.244148
1428.89	0.244199
1437.14	0.244249
1445.44	0.244299
1453.78	0.244349
1462.18	0.2444
1470.62	0.24445
1479.11	0.2445
1487.65	0.24455
1496.24	0.2446
1504.87	0.244651
1513.56	0.244701
1522.3	0.244751
1531.09	0.244801
1539.93	0.244852
1548.82	0.244902
1557.76	0.244952
1566.75	0.245002
1575.8	0.245052
1584.89	0.245103
1594.04	0.245153
1603.25	0.245203
1612.5	0.245253
1621.81	0.245303
1631.17	0.245354
1640.59	0.245404
1650.06	0.245454
1659.59	0.245504
1669.17	0.245555
1678.8	0.245605
1688.5	0.245655
1698.24	0.245705
1708.05	0.245755
1717.91	0.245806
1727.83	0.245856
1737.8	0.245906
1747.83	0.245956
1757.92	0.246007
1768.07	0.246057
1778.28	0.246107
1788.55	0.246157
1798.87	0.246207
1809.26	0.246258
1819.7	0.246308
1830.21	0.246358
1840.77	0.246408
1851.4	0.246458
1862.09	0.246509
1872.84	0.246559
1883.65	0.246609
1894.52	0.246659
1905.46	0.24671
1916.46	0.24676
1927.52	0.24681
1938.65	0.24686
1949.84	0.24691
1961.1	0.246961
1972.42	0.247011
1983.81	0.247061
1995.26	0.247111
2006.78	0.247161
2018.37	0.247212
2030.02	0.247262
2041.74	0.247312
2053.53	0.247362
2065.38	0.247413
2077.3	0.247463
2089.3	0.247513
2101.36	0.247563
2113.49	0.247613
2125.69	0.247664
2137.96	0.247714
2150.3	0.247764
2162.72	0.247814
2175.2	0.247864
2187.76	0.247915
2200.39	0.247965
2213.09	0.248015
2225.87	0.248065
2238.72	0.248116
2251.65	0.248166
2264.64	0.248216
2277.72	0.248266
2290.87	0.248316
2304.09	0.248367
2317.39	0.248417
2330.77	0.248467
2344.23	0.248517
2357.76	0.248567
2371.37	0.248618
2385.06	0.248668
2398.83	0.248718
2412.68	0.248768
2426.61	0.248819
2440.62	0.248869
2454.71	0.248919
2468.88	0.248969
2483.13	0.249019
2497.47	0.24907
2511.89	0.24912
2526.39	0.24917
2540.97	0.24922
2555.64	0.24927
2570.4	0.249321
2585.23	0.249371
2600.16	0.249421
2615.17	0.249471
2630.27	0.249522
2645.45	0.249572
2660.73	0.249622
2676.09	0.249672
2691.53	0.249722
2707.07	0.249773
2722.7	0.249823
2738.42	0.249873
2754.23	0.249923
2770.13	0.249973
2786.12	0.250024
2802.21	0.250074
2818.38	0.250124
2834.65	0.250174
2851.02	0.250224
2867.48	0.250275
2884.03	0.250325
2900.68	0.250375
2917.43	0.250425
2934.27	0.250476
2951.21	0.250526
2968.25	0.250576
2985.38	0.250626
3002.62	0.250676
3019.95	0.250727
3037.39	0.250777
3054.92	0.250827
3072.56	0.250877
3090.3	0.250927
3108.14	0.250978
3126.08	0.251028
3144.13	0.251078
3162.28	0.251128
3180.53	0.251178
3198.9	0.251229
3217.36	0.251279
3235.94	0.251329
3254.62	0.251379
3273.41	0.251429
3292.3	0.25148
3311.31	0.25153
3330.43	0.25158
3349.65	0.25163
3368.99	0.251681
3388.44	0.251731
3408	0.251781
3427.68	0.251831
3447.47	0.251881
3467.37	0.251932
3487.39	0.251982
3507.52	0.252032
3527.77	0.252082
3548.13	0.252132
3568.62	0.252183
3589.22	0.252233
3609.94	0.252283
3630.78	0.252333
3651.74	0.252383
3672.82	0.252434
3694.03	0.252484
3715.35	0.252534
3736.8	0.252584
3758.37	0.252634
3780.07	0.252685
3801.89	0.252735
3823.84	0.252785
3845.92	0.252835
3868.12	0.252886
3890.45	0.252936
3912.91	0.252986
3935.5	0.253036
3958.22	0.253086
3981.07	0.253137
4004.05	0.253187
4027.17	0.253237
4050.42	0.253287
4073.8	0.253337
4097.32	0.253388
4120.98	0.253438
4144.77	0.253488
4168.69	0.253538
4192.76	0.253588
4216.97	0.253639
4241.31	0.253689
4265.8	0.253739
4290.42	0.253789
4315.19	0.253839
4340.1	0.25389
4365.16	0.25394
4390.36	0.25399
4415.7	0.25404
4441.2	0.254091
4466.84	0.254141
4492.62	0.254191
4518.56	0.254241
4544.65	0.254291
4570.88	0.254342
4597.27	0.254392
4623.81	0.254442
4650.5	0.254492
4677.35	0.254542
4704.35	0.254593
4731.51	0.254643
4758.83	0.254693
4786.3	0.254743
4813.93	0.254793
4841.72	0.254844
4869.68	0.254894
4897.79	0.254944
4926.06	0.254994
4954.5	0.255044
4983.1	0.255095
5011.87	0.255145
5040.81	0.255195
5069.91	0.255245
5099.18	0.255295
5128.61	0.255346
5158.22	0.255396
5188	0.255446
5217.95	0.255496
5248.07	0.255546
5278.37	0.255597
5308.84	0.255647
5339.49	0.255697
5370.32	0.255747
5401.32	0.255798
5432.5	0.255848
5463.87	0.255898
5495.41	0.255948
5527.13	0.255998
5559.04	0.256049
5591.14	0.256099
5623.41	0.256149
5655.88	0.256199
5688.53	0.256249
5721.37	0.2563
5754.4	0.25635
5787.62	0.2564
5821.03	0.25645
5854.64	0.2565
5888.44	0.256551
5922.43	0.256601
5956.62	0.256651
5991.01	0.256701
6025.6	0.256751
6060.38	0.256802
6095.37	0.256852
6130.56	0.256902
6165.95	0.256952
6201.55	0.257002
6237.35	0.257053
6273.36	0.257103
6309.57	0.257153
6346	0.257203
6382.63	0.257253
6419.48	0.257304
6456.54	0.257354
6493.82	0.257404
6531.31	0.257454
6569.01	0.257504
6606.93	0.257555
6645.08	0.257605
6683.44	0.257655
6722.02	0.257705
6760.83	0.257756
6799.86	0.257806
6839.12	0.257856
6878.6	0.257906
6918.31	0.257956
6958.25	0.258007
6998.42	0.258057
7038.82	0.258107
7079.46	0.258157
7120.33	0.258207
7161.43	0.258258
7202.78	0.258308
7244.36	0.258358
7286.18	0.258408
7328.25	0.258458
7370.55	0.258509
7413.1	0.258559
7455.9	0.258609
7498.94	0.258659
7542.23	0.258709
7585.78	0.25876
7629.57	0.25881
7673.61	0.25886
7717.92	0.25891
7762.47	0.25896
7807.28	0.259011
7852.36	0.259061
7897.69	0.259111
7943.28	0.259161
7989.14	0.259211
8035.26	0.259262
8081.65	0.259312
8128.31	0.259362
8175.23	0.259412
8222.43	0.259462
8269.9	0.259513
8317.64	0.259563
8365.66	0.259613
8413.95	0.259663
8462.53	0.259713
8511.38	0.259764
8560.52	0.259814
8609.94	0.259864
8659.64	0.259914
8709.64	0.259964
8759.92	0.260015
8810.49	0.260065
8861.35	0.260115
8912.51	0.260165
8963.96	0.260215
9015.71	0.260266
9067.76	0.260316
9120.11	0.260366
9172.76	0.260416
9225.71	0.260467
9278.97	0.260517
9332.54	0.260567
9386.42	0.260617
9440.61	0.260667
9495.11	0.260718
9549.93	0.260768
9605.06	0.260818
9660.51	0.260868
9716.28	0.260918
9772.37	0.260969
9828.79	0.261019
9885.53	0.261069
9942.6	0.261119
10000	0.261169
10057.7	0.26122
10115.8	0.26127
10174.2	0.26132
10232.9	0.26137
10292	0.26142
10351.4	0.261471
10411.2	0.261521
10471.3	0.261571
10531.7	0.261621
10592.5	0.261671
10653.7	0.261722
10715.2	0.261772
10777.1	0.261822
10839.3	0.261872
10901.8	0.261922
10964.8	0.261973
11028.1	0.262023
11091.7	0.262073
11155.8	0.262123
11220.2	0.262173
11285	0.262224
11350.1	0.262274
11415.6	0.262324
11481.5	0.262374
11547.8	0.262424
11614.5	0.262475
11681.5	0.262525
11749	0.262575
11816.8	0.262625
11885	0.262675
11953.6	0.262726
12022.6	0.262776
12092.1	0.262826
12161.9	0.262876
12232.1	0.262926
12302.7	0.262977
12373.7	0.263027
12445.1	0.263077
12517	0.263127
12589.3	0.263177
12661.9	0.263228
12735	0.263278
12808.6	0.263328
12882.5	0.263378
12956.9	0.263428
13031.7	0.263479
13106.9	0.263529
13182.6	0.263579
13258.7	0.263629
13335.2	0.263679
13412.2	0.26373
13489.6	0.26378
13567.5	0.26383
13645.8	0.26388
13724.6	0.263931
13803.8	0.263981
13883.5	0.264031
13963.7	0.264081
14044.3	0.264131
14125.4	0.264182
14206.9	0.264232
14288.9	0.264282
14371.4	0.264332
14454.4	0.264382
14537.8	0.264433
14621.8	0.264483
14706.2	0.264533
14791.1	0.264583
14876.5	0.264633
14962.4	0.264684
15048.7	0.264734
15135.6	0.264784
15223	0.264834
15310.9	0.264884
15399.3	0.264935
15488.2	0.264985
15577.6	0.265035
15667.5	0.265085
15758	0.265135
15848.9	0.265186
15940.4	0.265236
16032.5	0.265286
16125	0.265336
16218.1	0.265386
16311.7	0.265437
16405.9	0.265487
16500.6	0.265537
16595.9	0.265587
16691.7	0.265637
16788	0.265688
16885	0.265738
16982.4	0.265788
17080.5	0.265838
17179.1	0.265888
17278.3	0.265939
17378	0.265989
17478.3	0.266039
17579.2	0.266089
17680.7	0.266139
17782.8	0.26619
17885.5	0.26624
17988.7	0.26629
18092.6	0.26634
18197	0.26639
18302.1	0.266441
18407.7	0.266491
18514	0.266541
18620.9	0.266591
18728.4	0.266641
18836.5	0.266692
18945.2	0.266742
19054.6	0.266792
19164.6	0.266842
19275.2	0.266892
19386.5	0.266943
19498.4	0.266993
19611	0.267043
19724.2	0.267093
19838.1	0.267143
19952.6	0.267194
20067.8	0.267244
20183.7	0.267294
20300.2	0.267344
20417.4	0.267394
20535.3	0.267445
20653.8	0.267495
20773	0.267545
20893	0.267595
21013.6	0.267645
21134.9	0.267696
21256.9	0.267746
21379.6	0.267796
21503	0.267846
21627.2	0.267896
21752	0.267947
21877.6	0.267997
22003.9	0.268047
22130.9	0.268097
22258.7	0.268147
22387.2	0.268198
22516.5	0.268248
22646.4	0.268298
22777.2	0.268348
22908.7	0.268398
23040.9	0.268449
23173.9	0.268499
23307.7	0.268549
23442.3	0.268599
23577.6	0.268649
23713.7	0.2687
23850.6	0.26875
23988.3	0.2688
24126.8	0.26885
24266.1	0.2689
24406.2	0.268951
24547.1	0.269001
24688.8	0.269051
24831.3	0.269101
24974.7	0.269151
25118.9	0.269202
25263.9	0.269252
25409.7	0.269302
25556.4	0.269352
25704	0.269402
25852.3	0.269453
26001.6	0.269503
26151.7	0.269553
26302.7	0.269603
26454.5	0.269653
26607.3	0.269704
26760.9	0.269754
26915.3	0.269804
27070.7	0.269854
27227	0.269904
27384.2	0.269955
27542.3	0.270005
27701.3	0.270055
27861.2	0.270105
28022.1	0.270156
28183.8	0.270206
28346.5	0.270256
28510.2	0.270306
28674.8	0.270356
28840.3	0.270407
29006.8	0.270457
29174.3	0.270507
29342.7	0.270557
29512.1	0.270607
29682.5	0.270658
29853.8	0.270708
30026.2	0.270758
30199.5	0.270808
30373.9	0.270858
30549.2	0.270909
30725.6	0.270959
30903	0.271009
31081.4	0.271059
31260.8	0.271109
31441.3	0.27116
31622.8	0.27121
31805.3	0.27126
31989	0.27131
32173.6	0.27136
32359.4	0.271411
32546.2	0.271461
32734.1	0.271511
32923	0.271561
33113.1	0.271611
33304.3	0.271662
33496.5	0.271712
33689.9	0.271762
33884.4	0.271812
34080	0.271862
34276.8	0.271913
34474.7	0.271963
34673.7	0.272013
34873.9	0.272063
35075.2	0.272113
35277.7	0.272164
35481.3	0.272214
35686.2	0.272264
35892.2	0.272314
36099.4	0.272364
36307.8	0.272415
36517.4	0.272465
36728.2	0.272515
36940.3	0.272565
37153.5	0.272615
37368	0.272666
37583.7	0.272716
37800.7	0.272766
38018.9	0.272816
38238.4	0.272866
38459.2	0.272917
38681.2	0.272967
38904.5	0.273017
39129.1	0.273067
39355	0.273117
39582.2	0.273168
39810.7	0.273218
40040.5	0.273268
40271.7	0.273318
40504.2	0.273368
40738	0.273419
40973.2	0.273469
41209.8	0.273519
41447.7	0.273569
41686.9	0.273619
41927.6	0.27367
42169.7	0.27372
42413.1	0.27377
42658	0.27382
42904.2	0.27387
43151.9	0.273921
43401	0.273971
43651.6	0.274021
43903.6	0.274071
44157	0.274121
44412	0.274172
44668.4	0.274222
44926.2	0.274272
45185.6	0.274322
45446.5	0.274372
45708.8	0.274423
45972.7	0.274473
46238.1	0.274523
46505	0.274573
46773.5	0.274623
47043.5	0.274674
47315.1	0.274724
47588.3	0.274774
47863	0.274824
48139.3	0.274874
48417.2	0.274925
48696.8	0.274975
48977.9	0.275025
49260.6	0.275075
49545	0.275125
49831	0.275176
50118.7	0.275226
50408.1	0.275276
50699.1	0.275326
50991.8	0.275376
51286.1	0.275427
51582.2	0.275477
51880	0.275527
52179.5	0.275577
52480.7	0.275627
52783.7	0.275678
53088.4	0.275728
53394.9	0.275778
53703.2	0.275828
54013.2	0.275878
54325	0.275929
54638.7	0.275979
54954.1	0.276029
55271.3	0.276079
55590.4	0.276129
55911.4	0.27618
56234.1	0.27623
56558.8	0.27628
56885.3	0.27633
57213.7	0.27638
57544	0.276431
57876.2	0.276481
58210.3	0.276531
58546.4	0.276581
58884.4	0.276631
59224.3	0.276682
59566.2	0.276732
59910.1	0.276782
60256	0.276832
60603.8	0.276882
60953.7	0.276933
61305.6	0.276983
61659.5	0.277033
62015.5	0.277083
62373.5	0.277133
62733.6	0.277184
63095.7	0.277234
63460	0.277284
63826.3	0.277334
64194.8	0.277384
64565.4	0.277435
64938.2	0.277485
65313.1	0.277535
65690.1	0.277585
66069.3	0.277635
66450.8	0.277686
66834.4	0.277736
67220.2	0.277786
67608.3	0.277836
67998.6	0.277886
68391.2	0.277937
68786	0.277987
69183.1	0.278037
69582.5	0.278087
69984.2	0.278137
70388.2	0.278188
70794.6	0.278238
71203.3	0.278288
71614.3	0.278338
72027.8	0.278388
72443.6	0.278439
72861.8	0.278489
73282.5	0.278539
73705.5	0.278589
74131	0.278639
74559	0.27869
74989.4	0.27874
75422.3	0.27879
75857.8	0.27884
76295.7	0.27889
76736.1	0.278941
77179.2	0.278991
77624.7	0.279041
78072.8	0.279091
78523.6	0.279141
78976.9	0.279192
79432.8	0.279242
79891.4	0.279292
80352.6	0.279342
80816.5	0.279392
81283.1	0.279443
81752.3	0.279493
82224.3	0.279543
82699	0.279593
83176.4	0.279643
83656.6	0.279694
84139.5	0.279744
84625.3	0.279794
85113.8	0.279844
85605.2	0.279894
86099.4	0.279945
86596.4	0.279995
87096.4	0.280045
87599.2	0.280095
88104.9	0.280145
88613.5	0.280196
89125.1	0.280246
89639.6	0.280296
90157.1	0.280346
90677.6	0.280396
91201.1	0.280447
91727.6	0.280497
92257.1	0.280547
92789.7	0.280597
93325.4	0.280647
93864.2	0.280698
94406.1	0.280748
94951.1	0.280798
95499.3	0.280848
96050.6	0.280898
96605.1	0.280949
97162.8	0.280999
97723.7	0.281049
98287.9	0.281099
98855.3	0.281149
99426	0.2812
100000	0.28125
100577	0.2813
101158	0.28135
101742	0.2814
102329	0.281451
102920	0.281501
103514	0.281551
104112	0.281601
104713	0.281651
105317	0.281702
105925	0.281752
106537	0.281802
107152	0.281852
107771	0.281902
108393	0.281953
109018	0.282003
109648	0.282053
110281	0.282103
110917	0.282153
111558	0.282204
112202	0.282254
112850	0.282304
113501	0.282354
114156	0.282404
114815	0.282455
115478	0.282505
116145	0.282555
116815	0.282605
117490	0.282655
118168	0.282706
118850	0.282756
119536	0.282806
120226	0.282856
120921	0.282906
121619	0.282957
122321	0.283007
123027	0.283057
123737	0.283107
124451	0.283157
125170	0.283208
125893	0.283258
126619	0.283308
127350	0.283358
128086	0.283408
128825	0.283459
129569	0.283509
130317	0.283559
131069	0.283609
131826	0.283659
132587	0.28371
133352	0.28376
134122	0.28381
134896	0.28386
135675	0.28391
136458	0.283961
137246	0.284011
138038	0.284061
138835	0.284111
139637	0.284161
140443	0.284212
141254	0.284262
142069	0.284312
142889	0.284362
143714	0.284412
144544	0.284463
145378	0.284513
146218	0.284563
147062	0.284613
147911	0.284663
148765	0.284714
149624	0.284764
150487	0.284814
151356	0.284864
152230	0.284914
153109	0.284965
153993	0.285015
154882	0.285065
155776	0.285115
156675	0.285165
157580	0.285216
158489	0.285266
159404	0.285316
160325	0.285366
161250	0.285416
162181	0.285467
163117	0.285517
164059	0.285567
165006	0.285617
165959	0.285667
166917	0.285718
167880	0.285768
168850	0.285818
169824	0.285868
170805	0.285918
171791	0.285969
172783	0.286019
173780	0.286069
174783	0.286119
175792	0.286169
176807	0.28622
177828	0.28627
178855	0.28632
179887	0.28637
180926	0.28642
181970	0.286471
183021	0.286521
184077	0.286571
185140	0.286621
186209	0.286671
187284	0.286722
188365	0.286772
189452	0.286822
190546	0.286872
191646	0.286922
192752	0.286973
193865	0.287023
194984	0.287073
196110	0.287123
197242	0.287173
198381	0.287224
199526	0.287274
200678	0.287324
201837	0.287374
203002	0.287424
204174	0.287475
205353	0.287525
206538	0.287575
207730	0.287625
208930	0.287675
210136	0.287726
211349	0.287776
212569	0.287826
213796	0.287876
215030	0.287926
216272	0.287977
217520	0.288027
218776	0.288077
220039	0.288127
221309	0.288177
222587	0.288228
223872	0.288278
225165	0.288328
226464	0.288378
227772	0.288428
229087	0.288479
230409	0.288529
231739	0.288579
233077	0.288629
234423	0.288679
235776	0.28873
237137	0.28878
238506	0.28883
239883	0.28888
241268	0.28893
242661	0.288981
244062	0.289031
245471	0.289081
246888	0.289131
248313	0.289181
249747	0.289232
251189	0.289282
252639	0.289332
254097	0.289382
255564	0.289432
257040	0.289483
258523	0.289533
260016	0.289583
261517	0.289633
263027	0.289683
264545	0.289734
266073	0.289784
267609	0.289834
269153	0.289884
270707	0.289934
272270	0.289985
273842	0.290035
275423	0.290085
277013	0.290135
278612	0.290185
280221	0.290236
281838	0.290286
283465	0.290336
285102	0.290386
286748	0.290436
288403	0.290487
290068	0.290537
291743	0.290587
293427	0.290637
295121	0.290687
296825	0.290738
298538	0.290788
300262	0.290838
301995	0.290888
303739	0.290938
305492	0.290989
307256	0.291039
309030	0.291089
310814	0.291139
312608	0.291189
314413	0.29124
316228	0.29129
318053	0.29134
319890	0.29139
321736	0.29144
323594	0.291491
325462	0.291541
327341	0.291591
329230	0.291641
331131	0.291691
333043	0.291742
334965	0.291792
336899	0.291842
338844	0.291892
340800	0.291942
342768	0.291993
344747	0.292043
346737	0.292093
348739	0.292143
350752	0.292193
352777	0.292244
354813	0.292294
356862	0.292344
358922	0.292394
360994	0.292444
363078	0.292495
365174	0.292545
367282	0.292595
369403	0.292645
371535	0.292695
373680	0.292746
375837	0.292796
378007	0.292846
380189	0.292896
382384	0.292946
384592	0.292997
386812	0.293047
389045	0.293097
391291	0.293147
393550	0.293197
395822	0.293248
398107	0.293298
400405	0.293348
402717	0.293398
405042	0.293448
407380	0.293499
409732	0.293549
412098	0.293599
414477	0.293649
416869	0.293699
419276	0.29375
421697	0.2938
424131	0.29385
426580	0.2939
429042	0.29395
431519	0.294001
434010	0.294051
436516	0.294101
439036	0.294151
441570	0.294202
444120	0.294252
446684	0.294302
449262	0.294352
451856	0.294402
454465	0.294453
457088	0.294503
459727	0.294553
462381	0.294603
465050	0.294653
467735	0.294704
470435	0.294754
473151	0.294804
475883	0.294854
478630	0.294904
481393	0.294955
484172	0.295005
486968	0.295055
489779	0.295105
492606	0.295155
495450	0.295206
498310	0.295256
501187	0.295306
504081	0.295356
506991	0.295406
509918	0.295457
512861	0.295507
515822	0.295557
518800	0.295607
521795	0.295657
524807	0.295708
527837	0.295758
530884	0.295808
533949	0.295858
537032	0.295908
540132	0.295959
543250	0.296009
546387	0.296059
549541	0.296109
552713	0.296159
555904	0.29621
559114	0.29626
562341	0.29631
565588	0.29636
568853	0.29641
572137	0.296461
575440	0.296511
578762	0.296561
582103	0.296611
585464	0.296661
588844	0.296712
592243	0.296762
595662	0.296812
599101	0.296862
602560	0.296912
606038	0.296963
609537	0.297013
613056	0.297063
616595	0.297113
620155	0.297163
623735	0.297214
627336	0.297264
630957	0.297314
634600	0.297364
638263	0.297414
641948	0.297465
645654	0.297515
649382	0.297565
653131	0.297615
656901	0.297665
660693	0.297716
664508	0.297766
668344	0.297816
672202	0.297866
676083	0.297916
679986	0.297967
683912	0.298017
687860	0.298067
691831	0.298117
695825	0.298167
699842	0.298218
703882	0.298268
707946	0.298318
712033	0.298368
716143	0.298418
720278	0.298469
724436	0.298519
728618	0.298569
732825	0.298619
737055	0.298669
741310	0.29872
745590	0.29877
749894	0.29882
754223	0.29887
758578	0.29892
762957	0.298971
767361	0.299021
771792	0.299071
776247	0.299121
780728	0.299171
785236	0.299222
789769	0.299272
794328	0.299322
798914	0.299372
803526	0.299422
808165	0.299473
812831	0.299523
817523	0.299573
822243	0.299623
826990	0.299673
831764	0.299724
836566	0.299774
841395	0.299824
846253	0.299874
851138	0.299924
856052	0.299975
860994	0.300025
865964	0.300075
870964	0.300125
875992	0.300175
881049	0.300226
886135	0.300276
891251	0.300326
896396	0.300376
901571	0.300426
906776	0.300477
912011	0.300527
917276	0.300577
922571	0.300627
927897	0.300677
933254	0.300728
938642	0.300778
944061	0.300828
949511	0.300878
954993	0.300928
960506	0.300979
966051	0.301029
971628	0.301079
977237	0.301129
982879	0.301179
988553	0.30123
994260	0.30128
1e+06	0.30133
1.00577e+06	0.30138
1.01158e+06	0.30143
1.01742e+06	0.301481
1.02329e+06	0.301531
1.0292e+06	0.301581
1.03514e+06	0.301631
1.04112e+06	0.301681
1.04713e+06	0.301732
1.05317e+06	0.301782
1.05925e+06	0.301832
1.06537e+06	0.301882
1.07152e+06	0.301932
1.07771e+06	0.301983
1.08393e+06	0.302033
1.09018e+06	0.302083
1.09648e+06	0.302133
1.10281e+06	0.302183
1.10917e+06	0.302234
1.11558e+06	0.302284
1.12202e+06	0.302334
1.1285e+06	0.302384
1.13501e+06	0.302434
1.14156e+06	0.302485
1.14815e+06	0.302535
1.15478e+06	0.302585
1.16145e+06	0.302635
1.16815e+06	0.302685
1.1749e+06	0.302736
1.18168e+06	0.302786
1.1885e+06	0.302836
1.19536e+06	0.302886
1.20226e+06	0.302936
1.20921e+06	0.302987
1.21619e+06	0.303037
1.22321e+06	0.303087
1.23027e+06	0.303137
1.23737e+06	0.303187
1.24451e+06	0.303238
1.2517e+06	0.303288
1.25893e+06	0.303338
1.26619e+06	0.303388
1.2735e+06	0.303438
1.28086e+06	0.303489
1.28825e+06	0.303539
1.29569e+06	0.303589
1.30317e+06	0.303639
1.31069e+06	0.303689
1.31826e+06	0.30374
1.32587e+06	0.30379
1.33352e+06	0.30384
1.34122e+06	0.30389
1.34896e+06	0.30394
1.35675e+06	0.303991
1.36458e+06	0.304041
1.37246e+06	0.304091
1.38038e+06	0.304141
1.38835e+06	0.304191
1.39637e+06	0.304242
1.40443e+06	0.304292
1.41254e+06	0.304342
1.42069e+06	0.304392
1.42889e+06	0.304442
1.43714e+06	0.304493
1.44544e+06	0.304543
1.45378e+06	0.304593
1.46218e+06	0.304643
1.47062e+06	0.304693
1.47911e+06	0.304744
1.48765e+06	0.304794
1.49624e+06	0.304844
1.50487e+06	0.304894
1.51356e+06	0.304944
1.5223e+06	0.304995
1.53109e+06	0.305045
1.53993e+06	0.305095
1.54882e+06	0.305145
1.55776e+06	0.305195
1.56675e+06	0.305246
1.5758e+06	0.305296
1.58489e+06	0.305346
1.59404e+06	0.305396
1.60325e+06	0.305446
1.6125e+06	0.305497
1.62181e+06	0.305547
1.63117e+06	0.305597
1.64059e+06	0.305647
1.65006e+06	0.305697
1.65959e+06	0.305748
1.66917e+06	0.305798
1.6788e+06	0.305848
1.6885e+06	0.305898
1.69824e+06	0.305948
1.70805e+06	0.305999
1.71791e+06	0.306049
1.72783e+06	0.306099
1.7378e+06	0.306149
1.74783e+06	0.306199
1.75792e+06	0.30625
1.76807e+06	0.3063
1.77828e+06	0.30635
1.78855e+06	0.3064
1.79887e+06	0.30645
1.80926e+06	0.306501
1.8197e+06	0.306551
1.83021e+06	0.306601
1.84077e+06	0.306651
1.8514e+06	0.306701
1.86209e+06	0.306752
1.87284e+06	0.306802
1.88365e+06	0.306852
1.89452e+06	0.306902
1.90546e+06	0.306952
1.91646e+06	0.307003
1.92752e+06	0.307053
1.93865e+06	0.307103
1.94984e+06	0.307153
1.9611e+06	0.307203
1.97242e+06	0.307254
1.98381e+06	0.307304
1.99526e+06	0.307354
2.00678e+06	0.307404
2.01837e+06	0.307454
2.03002e+06	0.307505
2.04174e+06	0.307555
2.05353e+06	0.307605
2.06538e+06	0.307655
2.0773e+06	0.307705
2.0893e+06	0.307756
2.10136e+06	0.307806
2.11349e+06	0.307856
2.12569e+06	0.307906
2.13796e+06	0.307956
2.1503e+06	0.308007
2.16272e+06	0.308057
2.1752e+06	0.308107
2.18776e+06	0.308157
2.20039e+06	0.308207
2.21309e+06	0.308258
2.22587e+06	0.308308
2.23872e+06	0.308358
2.25165e+06	0.308408
2.26464e+06	0.308458
2.27772e+06	0.308509
2.29087e+06	0.308559
2.30409e+06	0.308609
2.31739e+06	0.308659
2.33077e+06	0.308709
2.34423e+06	0.30876
2.35776e+06	0.30881
2.37137e+06	0.30886
2.38506e+06	0.30891
2.39883e+06	0.30896
2.41268e+06	0.309011
2.42661e+06	0.309061
2.44062e+06	0.309111
2.45471e+06	0.309161
2.46888e+06	0.309211
2.48313e+06	0.309262
2.49747e+06	0.309312
2.51189e+06	0.309362
2.52639e+06	0.309412
2.54097e+06	0.309462
2.55564e+06	0.309513
2.5704e+06	0.309563
2.58523e+06	0.309613
2.60016e+06	0.309663
2.61517e+06	0.309713
2.63027e+06	0.309764
2.64545e+06	0.309814
2.66073e+06	0.309864
2.67609e+06	0.309914
2.69153e+06	0.309964
2.70707e+06	0.310015
2.7227e+06	0.310065
2.73842e+06	0.310115
2.75423e+06	0.310165
2.77013e+06	0.310215
2.78612e+06	0.310266
2.80221e+06	0.310316
2.81838e+06	0.310366
2.83465e+06	0.310416
2.85102e+06	0.310466
2.86748e+06	0.310517
2.88403e+06	0.310567
2.90068e+06	0.310617
2.91743e+06	0.310667
2.93427e+06	0.310717
2.95121e+06	0.310768
2.96825e+06	0.310818
2.98538e+06	0.310868
3.00262e+06	0.310918
3.01995e+06	0.310968
3.03739e+06	0.311019
3.05492e+06	0.311069
3.07256e+06	0.311119
3.0903e+06	0.311169
3.10814e+06	0.311219
3.12608e+06	0.31127
3.14413e+06	0.31132
3.16228e+06	0.31137
3.18053e+06	0.31142
3.1989e+06	0.31147
3.21736e+06	0.311521
3.23594e+06	0.311571
3.25462e+06	0.311621
3.27341e+06	0.311671
3.2923e+06	0.311721
3.31131e+06	0.311772
3.33043e+06	0.311822
3.34965e+06	0.311872
3.36899e+06	0.311922
3.38844e+06	0.311972
3.408e+06	0.312023
3.42768e+06	0.312073
3.44747e+06	0.312123
3.46737e+06	0.312173
3.48739e+06	0.312223
3.50752e+06	0.312274
3.52777e+06	0.312324
3.54813e+06	0.312374
3.56862e+06	0.312424
3.58922e+06	0.312474
3.60994e+06	0.312525
3.63078e+06	0.312575
3.65174e+06	0.312625
3.67282e+06	0.312675
3.69403e+06	0.312725
3.71535e+06	0.312776
3.7368e+06	0.312826
3.75837e+06	0.312876
3.78007e+06	0.312926
3.80189e+06	0.312976
3.82384e+06	0.313027
3.84592e+06	0.313077
3.86812e+06	0.313127
3.89045e+06	0.313177
3.91291e+06	0.313227
3.9355e+06	0.313278
3.95822e+06	0.313328
3.98107e+06	0.313378
4.00405e+06	0.313428
4.02717e+06	0.313478
4.05042e+06	0.313529
4.0738e+06	0.313579
4.09732e+06	0.313629
4.12098e+06	0.313679
4.14477e+06	0.313729
4.16869e+06	0.31378
4.19276e+06	0.31383
4.21697e+06	0.31388
4.24131e+06	0.31393
4.2658e+06	0.31398
4.29042e+06	0.314031
4.31519e+06	0.314081
4.3401e+06	0.314131
4.36516e+06	0.314181
4.39036e+06	0.314231
4.4157e+06	0.314282
4.4412e+06	0.314332
4.46684e+06	0.314382
4.49262e+06	0.314432
4.51856e+06	0.314482
4.54465e+06	0.314533
4.57088e+06	0.314583
4.59727e+06	0.314633
4.62381e+06	0.314683
4.6505e+06	0.314733
4.67735e+06	0.314784
4.70435e+06	0.314834
4.73151e+06	0.314884
4.75883e+06	0.314934
4.7863e+06	0.314984
4.81393e+06	0.315035
4.84172e+06	0.315085
4.86968e+06	0.315135
4.89779e+06	0.315185
4.92606e+06	0.315235
4.9545e+06	0.315286
4.9831e+06	0.315336
5.01187e+06	0.315386
5.04081e+06	0.315436
5.06991e+06	0.315486
5.09918e+06	0.315537
5.12861e+06	0.315587
5.15822e+06	0.315637
5.188e+06	0.315687
5.21795e+06	0.315737
5.24807e+06	0.315788
5.27837e+06	0.315838
5.30884e+06	0.315888
5.33949e+06	0.315938
5.37032e+06	0.315988
5.40132e+06	0.316039
5.4325e+06	0.316089
5.46387e+06	0.316139
5.49541e+06	0.316189
5.52713e+06	0.316239
5.55904e+06	0.31629
5.59114e+06	0.31634
5.62341e+06	0.31639
5.65588e+06	0.31644
5.68853e+06	0.31649
5.72137e+06	0.316541
5.7544e+06	0.316591
5.78762e+06	0.316641
5.82103e+06	0.316691
5.85464e+06	0.316741
5.88844e+06	0.316792
5.92243e+06	0.316842
5.95662e+06	0.316892
5.99101e+06	0.316942
6.0256e+06	0.316992
6.06038e+06	0.317043
6.09537e+06	0.317093
6.13056e+06	0.317143
6.16595e+06	0.317193
6.20155e+06	0.317243
6.23735e+06	0.317294
6.27336e+06	0.317344
6.30957e+06	0.317394
6.346e+06	0.317444
6.38263e+06	0.317494
6.41948e+06	0.317545
6.45654e+06	0.317595
6.49382e+06	0.317645
6.53131e+06	0.317695
6.56901e+06	0.317745
6.60693e+06	0.317796
6.64508e+06	0.317846
6.68344e+06	0.317896
6.72202e+06	0.317946
6.76083e+06	0.317996
6.79986e+06	0.318047
6.83912e+06	0.318097
6.8786e+06	0.318147
6.91831e+06	0.318197
6.95825e+06	0.318247
6.99842e+06	0.318298
7.03882e+06	0.318348
7.07946e+06	0.318398
7.12033e+06	0.318448
7.16143e+06	0.318498
7.20278e+06	0.318549
7.24436e+06	0.318599
7.28618e+06	0.318649
7.32825e+06	0.318699
7.37055e+06	0.318749
7.4131e+06	0.3188
7.4559e+06	0.31885
7.49894e+06	0.3189
7.54223e+06	0.31895
7.58578e+06	0.319
7.62957e+06	0.319051
7.67361e+06	0.319101
7.71792e+06	0.319151
7.76247e+06	0.319201
7.80728e+06	0.319251
7.85236e+06	0.319302
7.89769e+06	0.319352
7.94328e+06	0.319402
7.98914e+06	0.319452
8.03526e+06	0.319502
8.08165e+06	0.319553
8.12831e+06	0.319603
8.17523e+06	0.319653
8.22243e+06	0.319703
8.2699e+06	0.319753
8.31764e+06	0.319804
8.36566e+06	0.319854
8.41395e+06	0.319904
8.46253e+06	0.319954
8.51138e+06	0.320004
8.56052e+06	0.320055
8.60994e+06	0.320105
8.65964e+06	0.320155
8.70964e+06	0.320205
8.75992e+06	0.320255
8.81049e+06	0.320306
8.86135e+06	0.320356
8.91251e+06	0.320406
8.96396e+06	0.320456
9.01571e+06	0.320506
9.06776e+06	0.320557
9.12011e+06	0.320607
9.17276e+06	0.320657
9.22571e+06	0.320707
9.27897e+06	0.320757
9.33254e+06	0.320808
9.38642e+06	0.320858
9.44061e+06	0.320908
9.49511e+06	0.320958
9.54993e+06	0.321008
9.60506e+06	0.321059
9.66051e+06	0.321109
9.71628e+06	0.321159
9.77237e+06	0.321209
9.82879e+06	0.321259
9.88553e+06	0.32131
9.9426e+06	0.32136
1e+07	0.32141
